index,unixTimestamp,TP9,AF7,AF8,TP10
0,1746313003949.125,-0.48828125,-0.48828125,0,-0.48828125
1,1746313003953.0312,-0.48828125,-0.48828125,0,-0.48828125
2,1746313003956.9375,1.46484375,0.9765625,-2.44140625,1.46484375
3,1746313003960.8438,-4.39453125,-2.9296875,4.8828125,-3.41796875
4,1746313003964.75,21.484375,15.13671875,-29.296875,20.01953125
5,1746313003968.6562,62.5,46.38671875,-73.73046875,55.6640625
6,1746313003972.5625,48.33984375,50.29296875,-76.66015625,62.98828125
7,1746313003976.4688,33.203125,48.828125,-85.9375,58.59375
8,1746313003980.375,23.4375,41.9921875,-82.03125,42.96875
9,1746313003984.2812,28.3203125,39.0625,-79.58984375,43.45703125
10,1746313003988.1875,31.73828125,38.0859375,-82.51953125,43.9453125
11,1746313003992.0938,22.94921875,23.4375,-96.19140625,39.55078125
0,1746313003996,51.26953125,7.8125,-104.4921875,34.66796875
1,1746313003999.9062,52.734375,-6.34765625,-99.12109375,31.25
2,1746313004003.8125,63.96484375,-30.76171875,-106.93359375,31.25
3,1746313004007.7188,63.96484375,-61.03515625,-123.046875,5.37109375
4,1746313004011.625,36.1328125,-83.49609375,-138.671875,10.25390625
5,1746313004015.5312,11.71875,-106.93359375,-165.0390625,-20.99609375
6,1746313004019.4375,-26.3671875,-137.6953125,-196.2890625,-92.28515625
7,1746313004023.3438,-37.109375,-159.66796875,-214.35546875,-103.02734375
8,1746313004027.25,-41.015625,-165.0390625,-218.75,-111.81640625
9,1746313004031.1562,-53.7109375,-168.45703125,-218.75,-134.765625
10,1746313004035.0625,-67.3828125,-176.26953125,-221.6796875,-138.671875
11,1746313004038.9688,-75.68359375,-187.01171875,-227.5390625,-127.44140625
0,1746313004042.875,-73.2421875,-196.77734375,-234.375,-142.08984375
1,1746313004046.7812,-101.07421875,-199.70703125,-244.62890625,-166.9921875
2,1746313004050.6875,-126.953125,-197.265625,-243.65234375,-176.7578125
3,1746313004054.5938,-126.953125,-207.51953125,-257.32421875,-183.10546875
4,1746313004058.5,-144.53125,-228.515625,-276.85546875,-197.75390625
5,1746313004062.4062,-164.55078125,-231.4453125,-266.6015625,-209.47265625
6,1746313004066.3125,-152.83203125,-224.609375,-246.09375,-209.9609375
7,1746313004070.2188,-138.671875,-219.7265625,-239.74609375,-187.5
8,1746313004074.125,-147.4609375,-212.40234375,-224.12109375,-174.8046875
9,1746313004078.0312,-131.34765625,-201.171875,-199.70703125,-182.12890625
10,1746313004081.9375,-112.79296875,-187.01171875,-186.03515625,-177.24609375
11,1746313004085.8438,-123.046875,-175.78125,-174.31640625,-149.4140625
0,1746313004089.75,-109.86328125,-168.9453125,-166.50390625,-141.6015625
1,1746313004093.6562,-107.91015625,-165.0390625,-160.64453125,-172.36328125
2,1746313004097.5625,-105.95703125,-159.66796875,-153.3203125,-153.80859375
3,1746313004101.4688,-88.37890625,-162.109375,-147.94921875,-132.8125
4,1746313004105.375,-95.21484375,-159.66796875,-141.11328125,-132.8125
5,1746313004109.2812,-87.40234375,-148.92578125,-136.71875,-107.91015625
6,1746313004113.1875,-82.03125,-146.484375,-127.44140625,-107.91015625
7,1746313004117.0938,-83.0078125,-141.6015625,-120.1171875,-116.2109375
8,1746313004121,-94.7265625,-137.6953125,-118.1640625,-104.4921875
9,1746313004124.9062,-91.30859375,-136.71875,-111.81640625,-93.26171875
10,1746313004128.8125,-71.77734375,-134.27734375,-109.86328125,-114.2578125
11,1746313004132.7188,-93.26171875,-145.01953125,-107.91015625,-140.625
0,1746313004136.625,-103.02734375,-148.4375,-102.05078125,-120.1171875
1,1746313004140.5312,-66.40625,-146.97265625,-98.14453125,-99.609375
2,1746313004144.4375,-78.61328125,-138.671875,-92.7734375,-82.51953125
3,1746313004148.3438,-107.421875,-130.37109375,-88.37890625,-91.30859375
4,1746313004152.25,-81.54296875,-129.39453125,-87.890625,-109.86328125
5,1746313004156.1562,-62.5,-118.1640625,-87.890625,-106.4453125
6,1746313004160.0625,-88.8671875,-116.2109375,-83.0078125,-98.14453125
7,1746313004163.9688,-85.9375,-120.1171875,-77.63671875,-97.16796875
8,1746313004167.875,-57.6171875,-115.234375,-73.2421875,-93.75
9,1746313004171.7812,-63.4765625,-109.86328125,-68.359375,-88.8671875
10,1746313004175.6875,-71.77734375,-110.83984375,-68.359375,-83.0078125
11,1746313004179.5938,-77.63671875,-107.421875,-70.3125,-82.03125
0,1746313004183.5,-75.1953125,-101.07421875,-68.84765625,-92.28515625
1,1746313004187.4062,-72.75390625,-97.16796875,-65.4296875,-90.8203125
2,1746313004191.3125,-60.546875,-90.33203125,-57.6171875,-64.453125
3,1746313004195.2188,-54.19921875,-86.9140625,-55.6640625,-55.17578125
4,1746313004199.125,-69.3359375,-84.47265625,-55.6640625,-74.21875
5,1746313004203.0312,-67.3828125,-76.66015625,-49.31640625,-70.80078125
6,1746313004206.9375,-39.55078125,-82.51953125,-45.8984375,-48.33984375
7,1746313004210.8438,-51.26953125,-92.7734375,-43.9453125,-51.26953125
8,1746313004214.75,-72.265625,-87.40234375,-50.78125,-63.96484375
9,1746313004218.6562,-57.12890625,-81.0546875,-54.19921875,-61.03515625
10,1746313004222.5625,-54.19921875,-76.171875,-37.109375,-63.4765625
11,1746313004226.4688,-71.2890625,-78.125,-30.2734375,-78.125
0,1746313004230.375,-62.98828125,-79.58984375,-36.62109375,-65.91796875
1,1746313004234.2812,-36.62109375,-81.0546875,-39.55078125,-47.8515625
2,1746313004238.1875,-29.296875,-79.1015625,-36.62109375,-58.59375
3,1746313004242.0938,-43.45703125,-77.63671875,-37.109375,-61.03515625
4,1746313004246,-58.59375,-78.61328125,-43.45703125,-72.265625
5,1746313004249.9062,-55.17578125,-73.73046875,-43.9453125,-87.890625
6,1746313004253.8125,-40.0390625,-73.2421875,-44.921875,-52.734375
7,1746313004257.7188,-41.015625,-77.1484375,-44.921875,-42.96875
8,1746313004261.625,-64.94140625,-80.56640625,-46.875,-80.56640625
9,1746313004265.5312,-44.921875,-80.078125,-54.19921875,-93.26171875
10,1746313004269.4375,-50.78125,-83.984375,-59.08203125,-94.23828125
11,1746313004273.3438,-61.03515625,-86.42578125,-57.6171875,-76.66015625
0,1746313004277.25,-41.015625,-91.796875,-53.22265625,-68.359375
1,1746313004281.1562,-55.6640625,-97.65625,-55.17578125,-83.984375
2,1746313004285.0625,-67.3828125,-96.19140625,-62.5,-92.7734375
3,1746313004288.9688,-66.40625,-100.09765625,-71.2890625,-111.328125
4,1746313004292.875,-60.546875,-110.3515625,-73.73046875,-127.9296875
5,1746313004296.7812,-73.73046875,-118.1640625,-77.63671875,-141.6015625
6,1746313004300.6875,-87.890625,-117.67578125,-81.54296875,-142.08984375
7,1746313004304.5938,-94.7265625,-122.55859375,-85.9375,-130.859375
8,1746313004308.5,-83.984375,-130.859375,-90.8203125,-116.69921875
9,1746313004312.4062,-70.80078125,-131.8359375,-94.7265625,-94.7265625
10,1746313004316.3125,-84.9609375,-131.34765625,-98.14453125,-115.72265625
11,1746313004320.2188,-63.96484375,-129.39453125,-96.19140625,-136.71875
0,1746313004324.125,-105.46875,-135.25390625,-90.8203125,-123.53515625
1,1746313004328.0312,-136.71875,-139.16015625,-93.75,-135.7421875
2,1746313004331.9375,-108.3984375,-139.16015625,-98.14453125,-148.4375
3,1746313004335.8438,-105.46875,-141.11328125,-95.21484375,-145.5078125
4,1746313004339.75,-96.19140625,-145.01953125,-98.14453125,-163.0859375
5,1746313004343.6562,-97.16796875,-147.94921875,-103.02734375,-168.45703125
6,1746313004347.5625,-102.5390625,-140.625,-101.07421875,-157.2265625
7,1746313004351.4688,-83.0078125,-128.90625,-98.6328125,-171.875
8,1746313004355.375,-86.9140625,-130.37109375,-98.6328125,-163.0859375
9,1746313004359.2812,-92.28515625,-128.90625,-97.65625,-143.5546875
10,1746313004363.1875,-85.9375,-128.90625,-92.7734375,-142.08984375
11,1746313004367.0938,-104.98046875,-137.20703125,-91.30859375,-134.27734375
0,1746313004371,-87.40234375,-132.32421875,-91.796875,-111.81640625
1,1746313004374.9062,-44.43359375,-127.44140625,-90.33203125,-101.07421875
2,1746313004378.8125,-66.89453125,-124.0234375,-90.8203125,-91.30859375
3,1746313004382.7188,-104.98046875,-117.67578125,-94.7265625,-103.515625
4,1746313004386.625,-109.86328125,-117.1875,-98.6328125,-129.39453125
5,1746313004390.5312,-109.375,-118.65234375,-100.09765625,-124.51171875
6,1746313004394.4375,-113.76953125,-122.55859375,-100.09765625,-130.37109375
7,1746313004398.3438,-98.6328125,-130.859375,-99.12109375,-130.37109375
8,1746313004402.25,-88.8671875,-134.27734375,-94.7265625,-106.4453125
9,1746313004406.1562,-104.4921875,-134.27734375,-92.28515625,-94.7265625
10,1746313004410.0625,-97.65625,-130.859375,-93.75,-131.34765625
11,1746313004413.9688,-94.7265625,-126.953125,-87.40234375,-126.953125
0,1746313004417.875,-97.65625,-121.58203125,-91.796875,-95.21484375
1,1746313004421.7812,-85.44921875,-112.79296875,-91.30859375,-91.796875
2,1746313004425.6875,-93.75,-122.55859375,-79.58984375,-88.8671875
3,1746313004429.5938,-109.375,-121.09375,-75.1953125,-76.66015625
4,1746313004433.5,-74.21875,-122.0703125,-69.82421875,-106.4453125
5,1746313004437.4062,-78.125,-138.18359375,-62.98828125,-121.58203125
6,1746313004441.3125,-102.05078125,-113.28125,-61.03515625,-86.42578125
7,1746313004445.2188,-95.21484375,-84.47265625,-76.171875,-107.91015625
8,1746313004449.125,-79.1015625,-69.82421875,-80.078125,-138.18359375
9,1746313004453.0312,-80.078125,-71.2890625,-77.63671875,-140.625
10,1746313004456.9375,-97.16796875,-78.61328125,-80.56640625,-133.7890625
11,1746313004460.8438,-87.890625,-86.42578125,-80.078125,-100.5859375
0,1746313004464.75,-83.984375,-99.12109375,-69.82421875,-86.9140625
1,1746313004468.6562,-69.3359375,-102.05078125,-58.10546875,-98.6328125
2,1746313004472.5625,-73.2421875,-106.4453125,-59.08203125,-110.3515625
3,1746313004476.4688,-90.8203125,-111.328125,-62.01171875,-124.51171875
4,1746313004480.375,-67.87109375,-105.95703125,-61.03515625,-101.07421875
5,1746313004484.2812,-57.6171875,-100.09765625,-57.6171875,-90.33203125
6,1746313004488.1875,-58.10546875,-102.05078125,-54.19921875,-110.3515625
7,1746313004492.0938,-65.91796875,-100.09765625,-55.6640625,-113.28125
8,1746313004496,-62.98828125,-94.23828125,-59.08203125,-100.5859375
9,1746313004499.9062,-62.5,-88.8671875,-63.4765625,-118.65234375
10,1746313004503.8125,-49.8046875,-80.56640625,-63.4765625,-115.72265625
11,1746313004507.7188,-36.62109375,-74.70703125,-62.5,-104.4921875
0,1746313004511.625,-39.0625,-70.80078125,-61.5234375,-100.09765625
1,1746313004515.5312,-43.45703125,-70.80078125,-61.03515625,-96.6796875
2,1746313004519.4375,-50.78125,-67.3828125,-56.640625,-86.42578125
3,1746313004523.3438,-39.0625,-63.96484375,-50.78125,-80.56640625
4,1746313004527.25,-47.36328125,-61.5234375,-48.33984375,-84.47265625
5,1746313004531.1562,-49.8046875,-59.08203125,-42.48046875,-77.1484375
6,1746313004535.0625,-41.015625,-57.12890625,-42.96875,-71.2890625
7,1746313004538.9688,-51.26953125,-53.7109375,-46.38671875,-92.28515625
8,1746313004542.875,-28.3203125,-48.828125,-34.66796875,-92.28515625
9,1746313004546.7812,-9.765625,-56.15234375,-30.76171875,-82.03125
10,1746313004550.6875,-42.48046875,-71.2890625,-38.57421875,-88.8671875
11,1746313004554.5938,-54.19921875,-79.58984375,-35.64453125,-77.1484375
0,1746313004558.5,-55.17578125,-84.47265625,-33.69140625,-78.125
1,1746313004562.4062,-44.921875,-82.51953125,-35.64453125,-89.35546875
2,1746313004566.3125,-46.875,-78.61328125,-33.203125,-68.84765625
3,1746313004570.2188,-57.12890625,-81.0546875,-36.62109375,-71.77734375
4,1746313004574.125,-45.41015625,-86.42578125,-41.9921875,-84.9609375
5,1746313004578.0312,-50.29296875,-88.37890625,-37.109375,-88.37890625
6,1746313004581.9375,-54.6875,-90.33203125,-39.55078125,-91.796875
7,1746313004585.8438,-55.17578125,-89.35546875,-40.0390625,-106.93359375
8,1746313004589.75,-53.22265625,-88.8671875,-38.57421875,-124.51171875
9,1746313004593.6562,-60.05859375,-104.98046875,-39.0625,-85.9375
10,1746313004597.5625,-55.17578125,-109.86328125,-34.1796875,-73.2421875
11,1746313004601.4688,-31.73828125,-96.6796875,-39.0625,-98.14453125
0,1746313004605.375,-54.6875,-101.5625,-44.921875,-97.65625
1,1746313004609.2812,-61.5234375,-102.5390625,-35.15625,-80.56640625
2,1746313004613.1875,-51.7578125,-91.30859375,-28.3203125,-66.89453125
3,1746313004617.0938,-54.19921875,-96.6796875,-27.34375,-59.5703125
4,1746313004621,-62.01171875,-98.14453125,-26.85546875,-74.21875
5,1746313004624.9062,-64.94140625,-89.84375,-31.25,-89.35546875
6,1746313004628.8125,-58.10546875,-85.9375,-32.71484375,-83.984375
7,1746313004632.7188,-62.98828125,-81.0546875,-33.69140625,-87.40234375
8,1746313004636.625,-54.19921875,-76.171875,-39.55078125,-104.4921875
9,1746313004640.5312,-53.7109375,-65.4296875,-38.0859375,-89.35546875
10,1746313004644.4375,-58.10546875,-62.01171875,-37.109375,-75.1953125
11,1746313004648.3438,-43.9453125,-62.98828125,-37.59765625,-79.1015625
0,1746313004652.25,-48.33984375,-65.4296875,-36.1328125,-80.56640625
1,1746313004656.1562,-40.52734375,-64.453125,-37.59765625,-70.3125
2,1746313004660.0625,-59.08203125,-66.89453125,-39.55078125,-73.2421875
3,1746313004663.9688,-65.91796875,-70.3125,-37.59765625,-84.47265625
4,1746313004667.875,-62.5,-64.453125,-42.48046875,-96.19140625
5,1746313004671.7812,-87.40234375,-58.10546875,-48.828125,-88.37890625
6,1746313004675.6875,-81.54296875,-56.640625,-47.8515625,-67.87109375
7,1746313004679.5938,-71.2890625,-58.59375,-43.45703125,-77.1484375
8,1746313004683.5,-58.10546875,-56.640625,-37.59765625,-85.44921875
9,1746313004687.4062,-45.41015625,-50.78125,-34.66796875,-52.24609375
10,1746313004691.3125,-64.453125,-46.875,-34.1796875,-48.828125
11,1746313004695.2188,-77.63671875,-51.7578125,-32.71484375,-65.91796875
0,1746313004699.125,-73.2421875,-50.78125,-31.73828125,-60.546875
1,1746313004703.0312,-67.3828125,-39.55078125,-41.015625,-61.5234375
2,1746313004706.9375,-61.5234375,-38.57421875,-38.57421875,-61.5234375
3,1746313004710.8438,-71.77734375,-44.921875,-29.78515625,-69.82421875
4,1746313004714.75,-82.03125,-39.55078125,-31.25,-74.21875
5,1746313004718.6562,-97.65625,-26.85546875,-29.296875,-67.3828125
6,1746313004722.5625,-68.84765625,-33.69140625,-32.2265625,-70.3125
7,1746313004726.4688,-20.5078125,-42.96875,-36.62109375,-66.89453125
8,1746313004730.375,-61.03515625,-45.41015625,-33.69140625,-81.54296875
9,1746313004734.2812,-108.88671875,-50.78125,-41.50390625,-94.7265625
10,1746313004738.1875,-108.88671875,-51.7578125,-53.22265625,-72.265625
11,1746313004742.0938,-95.703125,-52.734375,-57.12890625,-83.984375
0,1746313004746,-83.0078125,-58.10546875,-55.17578125,-101.5625
1,1746313004749.9062,-78.125,-53.22265625,-59.08203125,-103.02734375
2,1746313004753.8125,-77.1484375,-48.828125,-58.10546875,-70.3125
3,1746313004757.7188,-68.359375,-43.9453125,-55.17578125,-50.78125
4,1746313004761.625,-61.5234375,-37.109375,-61.03515625,-82.03125
5,1746313004765.5312,-69.82421875,-38.0859375,-56.15234375,-104.98046875
6,1746313004769.4375,-60.05859375,-42.96875,-51.26953125,-95.21484375
7,1746313004773.3438,-73.2421875,-47.36328125,-54.19921875,-52.24609375
8,1746313004777.25,-82.03125,-42.96875,-51.26953125,-31.25
9,1746313004781.1562,-60.546875,-34.1796875,-52.734375,-67.3828125
10,1746313004785.0625,-37.109375,-32.2265625,-52.24609375,-90.8203125
11,1746313004788.9688,-52.734375,-35.64453125,-48.33984375,-72.75390625
0,1746313004792.875,-104.98046875,-37.59765625,-47.8515625,-51.26953125
1,1746313004796.7812,-94.23828125,-38.57421875,-44.43359375,-69.82421875
2,1746313004800.6875,-68.359375,-39.55078125,-46.875,-88.37890625
3,1746313004804.5938,-51.26953125,-36.62109375,-44.921875,-61.5234375
4,1746313004808.5,-53.7109375,-31.73828125,-41.015625,-56.640625
5,1746313004812.4062,-58.10546875,-28.80859375,-43.9453125,-68.359375
6,1746313004816.3125,-43.9453125,-35.64453125,-45.41015625,-63.96484375
7,1746313004820.2188,-42.96875,-41.9921875,-44.43359375,-65.4296875
8,1746313004824.125,-47.8515625,-38.0859375,-40.0390625,-57.12890625
9,1746313004828.0312,-53.7109375,-33.69140625,-36.1328125,-61.03515625
10,1746313004831.9375,-59.5703125,-33.69140625,-39.55078125,-63.96484375
11,1746313004835.8438,-66.40625,-33.203125,-40.52734375,-47.36328125
0,1746313004839.75,-46.875,-31.25,-34.1796875,-10.25390625
1,1746313004843.6562,-4.8828125,-37.109375,-38.57421875,-20.01953125
2,1746313004847.5625,-54.19921875,-34.1796875,-40.52734375,-64.94140625
3,1746313004851.4688,-91.30859375,-26.85546875,-31.25,-67.3828125
4,1746313004855.375,-58.10546875,-30.2734375,-32.71484375,-70.3125
5,1746313004859.2812,-52.734375,-30.2734375,-35.15625,-68.84765625
6,1746313004863.1875,-51.26953125,-26.3671875,-35.15625,-56.640625
7,1746313004867.0938,-54.19921875,-25.87890625,-37.109375,-52.24609375
8,1746313004871,-44.921875,-26.3671875,-31.25,-71.2890625
9,1746313004874.9062,-20.01953125,-27.83203125,-29.296875,-51.7578125
10,1746313004878.8125,-27.83203125,-29.296875,-31.73828125,-21.97265625
11,1746313004882.7188,-47.8515625,-33.203125,-30.76171875,-34.1796875
0,1746313004886.625,-45.41015625,-31.73828125,-34.1796875,-31.73828125
1,1746313004890.5312,-42.48046875,-28.80859375,-36.1328125,-25.390625
2,1746313004894.4375,-21.484375,-30.76171875,-35.15625,-51.26953125
3,1746313004898.3438,-32.2265625,-31.73828125,-39.0625,-78.61328125
4,1746313004902.25,-69.3359375,-29.78515625,-36.62109375,-57.12890625
5,1746313004906.1562,-54.19921875,-23.92578125,-38.57421875,-33.69140625
6,1746313004910.0625,-63.4765625,-24.90234375,-41.50390625,-34.1796875
7,1746313004913.9688,-15.13671875,-28.3203125,-36.1328125,-39.0625
8,1746313004917.875,-37.109375,-20.01953125,-37.59765625,-45.41015625
9,1746313004921.7812,-78.61328125,-24.90234375,-36.1328125,-36.62109375
10,1746313004925.6875,-36.62109375,-37.59765625,-38.0859375,-45.41015625
11,1746313004929.5938,-47.8515625,-36.62109375,-43.45703125,-60.05859375
0,1746313004933.5,-42.48046875,-30.2734375,-36.62109375,-44.43359375
1,1746313004937.4062,-41.9921875,-28.3203125,-33.203125,-23.4375
2,1746313004941.3125,-55.17578125,-26.3671875,-39.0625,-65.4296875
3,1746313004945.2188,-41.9921875,-25.87890625,-39.0625,-80.56640625
4,1746313004949.125,-41.9921875,-28.80859375,-33.69140625,-22.94921875
5,1746313004953.0312,-60.546875,-25.390625,-31.73828125,-21.484375
6,1746313004956.9375,-44.921875,-23.4375,-29.78515625,-48.33984375
7,1746313004960.8438,-34.66796875,-23.4375,-36.1328125,-56.640625
8,1746313004964.75,-37.109375,-21.97265625,-37.59765625,-46.38671875
9,1746313004968.6562,-43.45703125,-21.484375,-33.203125,-64.94140625
10,1746313004972.5625,-32.71484375,-26.3671875,-35.15625,-83.0078125
11,1746313004976.4688,-24.4140625,-27.83203125,-34.1796875,-40.0390625
0,1746313004980.375,-45.8984375,-25.390625,-38.57421875,-26.85546875
1,1746313004984.2812,-53.7109375,-26.85546875,-39.55078125,-58.10546875
2,1746313004988.1875,-34.66796875,-27.83203125,-33.69140625,-62.98828125
3,1746313004992.0938,-41.015625,-27.83203125,-29.78515625,-53.22265625
4,1746313004996,-29.296875,-22.94921875,-28.80859375,-46.875
5,1746313004999.9062,12.6953125,-24.4140625,-25.390625,-42.48046875
6,1746313005003.8125,-10.25390625,-32.2265625,-26.85546875,-41.015625
7,1746313005007.7188,-53.22265625,-30.2734375,-29.296875,-36.62109375
8,1746313005011.625,-45.41015625,-25.87890625,-29.78515625,-29.78515625
9,1746313005015.5312,-35.64453125,-31.25,-28.3203125,-31.25
10,1746313005019.4375,-50.29296875,-31.73828125,-28.3203125,-48.33984375
11,1746313005023.3438,-40.0390625,-29.296875,-31.25,-57.6171875
0,1746313005027.25,-46.38671875,-23.4375,-31.73828125,-41.50390625
1,1746313005031.1562,-46.875,-27.34375,-30.2734375,-44.921875
2,1746313005035.0625,-20.01953125,-33.69140625,-26.85546875,-44.921875
3,1746313005038.9688,-22.4609375,-32.2265625,-28.3203125,-20.01953125
4,1746313005042.875,-26.85546875,-30.2734375,-35.15625,-34.66796875
5,1746313005046.7812,-48.33984375,-32.2265625,-35.15625,-43.45703125
6,1746313005050.6875,-43.9453125,-27.34375,-37.109375,-39.55078125
7,1746313005054.5938,-29.78515625,-26.3671875,-39.0625,-48.33984375
8,1746313005058.5,-59.08203125,-35.15625,-38.57421875,-44.921875
9,1746313005062.4062,-41.9921875,-36.62109375,-42.96875,-46.875
10,1746313005066.3125,-33.203125,-33.69140625,-42.48046875,-53.7109375
11,1746313005070.2188,-52.734375,-31.73828125,-37.59765625,-49.8046875
0,1746313005074.125,-37.59765625,-27.34375,-36.62109375,-45.41015625
1,1746313005078.0312,-23.4375,-21.484375,-36.62109375,-51.7578125
2,1746313005081.9375,-33.69140625,-21.484375,-35.15625,-31.73828125
3,1746313005085.8438,-49.31640625,-27.34375,-33.203125,-25.390625
4,1746313005089.75,-19.04296875,-28.3203125,-33.203125,-31.73828125
5,1746313005093.6562,-4.39453125,-25.390625,-33.203125,-23.92578125
6,1746313005097.5625,-41.9921875,-26.85546875,-34.1796875,-14.6484375
7,1746313005101.4688,-44.921875,-29.78515625,-33.69140625,-33.203125
8,1746313005105.375,-21.97265625,-25.87890625,-35.15625,-55.17578125
9,1746313005109.2812,-52.734375,-21.97265625,-34.66796875,-47.8515625
10,1746313005113.1875,-59.08203125,-30.76171875,-31.73828125,-42.96875
11,1746313005117.0938,-33.203125,-30.76171875,-32.2265625,-52.24609375
0,1746313005121,-20.99609375,-20.99609375,-30.76171875,-51.26953125
1,1746313005124.9062,-18.5546875,-20.5078125,-28.80859375,-40.0390625
2,1746313005128.8125,-27.34375,-28.3203125,-30.2734375,-49.31640625
3,1746313005132.7188,-32.71484375,-23.92578125,-28.3203125,-35.64453125
4,1746313005136.625,0.9765625,-25.87890625,-29.296875,-17.08984375
5,1746313005140.5312,-21.484375,-31.73828125,-36.1328125,-15.13671875
6,1746313005144.4375,-40.0390625,-28.80859375,-30.76171875,-8.7890625
7,1746313005148.3438,-19.04296875,-24.90234375,-29.296875,-32.71484375
8,1746313005152.25,-23.92578125,-24.90234375,-31.25,-24.90234375
9,1746313005156.1562,-2.44140625,-23.4375,-27.34375,-23.4375
10,1746313005160.0625,-2.9296875,-24.4140625,-29.78515625,-29.296875
11,1746313005163.9688,-28.80859375,-29.296875,-32.2265625,-8.7890625
0,1746313005167.875,-35.15625,-32.71484375,-27.34375,-6.8359375
1,1746313005171.7812,-14.16015625,-39.55078125,-17.08984375,10.7421875
2,1746313005175.6875,-16.6015625,-36.1328125,-11.71875,18.5546875
3,1746313005179.5938,-23.92578125,-31.25,-19.53125,-16.11328125
4,1746313005183.5,-30.76171875,-28.80859375,-22.94921875,-56.15234375
5,1746313005187.4062,-3.90625,-28.3203125,-24.4140625,-56.15234375
6,1746313005191.3125,-10.25390625,-32.2265625,-33.203125,-72.265625
7,1746313005195.2188,-54.6875,-33.69140625,-35.15625,-94.23828125
8,1746313005199.125,-27.34375,-33.203125,-32.2265625,-78.125
9,1746313005203.0312,-9.765625,-27.83203125,-32.71484375,-56.15234375
10,1746313005206.9375,-17.08984375,-31.73828125,-29.78515625,-63.96484375
11,1746313005210.8438,-24.4140625,-38.0859375,-30.2734375,-48.33984375
0,1746313005214.75,-27.34375,-33.203125,-35.64453125,-41.9921875
1,1746313005218.6562,-10.7421875,-28.3203125,-34.1796875,-37.109375
2,1746313005222.5625,-14.6484375,-30.76171875,-31.73828125,-38.0859375
3,1746313005226.4688,-29.78515625,-37.59765625,-32.2265625,-61.5234375
4,1746313005230.375,-20.01953125,-38.0859375,-31.73828125,-58.59375
5,1746313005234.2812,-42.96875,-33.203125,-38.0859375,-46.38671875
6,1746313005238.1875,-60.546875,-38.0859375,-37.109375,-34.1796875
7,1746313005242.0938,-14.6484375,-45.41015625,-28.80859375,-30.2734375
8,1746313005246,-19.53125,-39.55078125,-31.25,-41.015625
9,1746313005249.9062,-45.8984375,-42.96875,-37.109375,-41.9921875
10,1746313005253.8125,-42.48046875,-46.38671875,-39.0625,-28.3203125
11,1746313005257.7188,-38.57421875,-44.43359375,-40.0390625,-24.4140625
0,1746313005261.625,-28.80859375,-43.45703125,-41.9921875,-36.1328125
1,1746313005265.5312,-19.53125,-42.48046875,-45.8984375,-47.8515625
2,1746313005269.4375,-41.9921875,-39.55078125,-43.9453125,-31.25
3,1746313005273.3438,-46.38671875,-35.64453125,-39.55078125,-18.5546875
4,1746313005277.25,-29.78515625,-41.9921875,-40.52734375,-21.484375
5,1746313005281.1562,-45.41015625,-49.31640625,-45.41015625,-39.55078125
6,1746313005285.0625,-51.26953125,-47.8515625,-41.50390625,-75.1953125
7,1746313005288.9688,-48.33984375,-45.8984375,-39.0625,-69.3359375
8,1746313005292.875,-33.69140625,-44.921875,-31.25,-38.0859375
9,1746313005296.7812,-26.3671875,-42.96875,-25.87890625,-25.390625
10,1746313005300.6875,-30.76171875,-45.41015625,-34.1796875,-46.38671875
11,1746313005304.5938,-29.78515625,-37.109375,-41.50390625,-47.8515625
0,1746313005308.5,-39.0625,-33.203125,-42.96875,-39.0625
1,1746313005312.4062,-43.9453125,-40.52734375,-39.55078125,-41.015625
2,1746313005316.3125,-40.52734375,-41.50390625,-32.71484375,-40.0390625
3,1746313005320.2188,-40.0390625,-41.9921875,-28.3203125,-45.8984375
4,1746313005324.125,-37.59765625,-46.875,-34.1796875,-47.8515625
5,1746313005328.0312,-56.15234375,-43.45703125,-36.62109375,-41.9921875
6,1746313005331.9375,-52.734375,-39.55078125,-38.0859375,-58.59375
7,1746313005335.8438,-28.80859375,-38.0859375,-35.64453125,-66.40625
8,1746313005339.75,-7.32421875,-40.52734375,-28.3203125,-51.26953125
9,1746313005343.6562,-23.92578125,-40.52734375,-28.3203125,-55.6640625
10,1746313005347.5625,-71.77734375,-36.62109375,-29.296875,-52.24609375
11,1746313005351.4688,-59.08203125,-37.59765625,-36.1328125,-41.50390625
0,1746313005355.375,-57.12890625,-35.15625,-34.66796875,-52.24609375
1,1746313005359.2812,-71.2890625,-31.25,-30.2734375,-55.6640625
2,1746313005363.1875,-64.453125,-31.25,-34.1796875,-51.7578125
3,1746313005367.0938,-61.03515625,-27.83203125,-32.71484375,-41.015625
4,1746313005371,-52.734375,-20.5078125,-33.203125,-25.87890625
5,1746313005374.9062,-24.4140625,-20.5078125,-32.2265625,-53.22265625
6,1746313005378.8125,-23.4375,-27.34375,-29.78515625,-69.82421875
7,1746313005382.7188,-44.921875,-26.3671875,-37.109375,-54.19921875
8,1746313005386.625,-21.97265625,-24.4140625,-38.0859375,-42.48046875
9,1746313005390.5312,-5.37109375,-35.15625,-34.1796875,-40.52734375
10,1746313005394.4375,-20.99609375,-29.296875,-35.64453125,-31.25
11,1746313005398.3438,-30.76171875,-30.76171875,-37.109375,-38.0859375
0,1746313005402.25,-22.94921875,-37.109375,-38.57421875,-43.45703125
1,1746313005406.1562,-16.6015625,-26.3671875,-37.109375,-35.64453125
2,1746313005410.0625,-32.2265625,-25.390625,-41.015625,-23.92578125
3,1746313005413.9688,-31.25,-27.34375,-44.921875,-29.296875
4,1746313005417.875,-8.7890625,-25.87890625,-36.1328125,-61.03515625
5,1746313005421.7812,-24.90234375,-27.83203125,-31.73828125,-55.17578125
6,1746313005425.6875,-44.43359375,-28.80859375,-34.1796875,-42.48046875
7,1746313005429.5938,-20.99609375,-32.2265625,-27.34375,-20.01953125
8,1746313005433.5,-25.87890625,-34.1796875,-29.78515625,-29.78515625
9,1746313005437.4062,-37.59765625,-26.3671875,-36.1328125,-62.5
10,1746313005441.3125,-33.203125,-30.2734375,-30.76171875,-51.26953125
11,1746313005445.2188,-27.34375,-42.48046875,-27.83203125,-47.8515625
0,1746313005449.125,-37.109375,-39.0625,-29.296875,-48.33984375
1,1746313005453.0312,-43.45703125,-32.71484375,-28.3203125,-24.4140625
2,1746313005456.9375,-26.85546875,-31.25,-25.87890625,-25.390625
3,1746313005460.8438,-30.2734375,-36.1328125,-24.4140625,-40.0390625
4,1746313005464.75,-27.34375,-37.59765625,-25.390625,-46.38671875
5,1746313005468.6562,-33.203125,-34.66796875,-29.296875,-54.19921875
6,1746313005472.5625,-46.875,-39.0625,-29.296875,-45.41015625
7,1746313005476.4688,-32.2265625,-44.921875,-30.76171875,-55.6640625
8,1746313005480.375,-41.50390625,-45.41015625,-31.25,-55.6640625
9,1746313005484.2812,-50.29296875,-42.48046875,-25.390625,-29.296875
10,1746313005488.1875,-34.1796875,-36.62109375,-31.73828125,-31.73828125
11,1746313005492.0938,-23.92578125,-36.62109375,-35.15625,-32.2265625
0,1746313005496,-42.48046875,-37.109375,-29.78515625,-30.2734375
1,1746313005499.9062,-48.33984375,-37.59765625,-27.34375,-38.57421875
2,1746313005503.8125,-16.11328125,-40.0390625,-24.90234375,-30.76171875
3,1746313005507.7188,-5.37109375,-37.59765625,-30.2734375,-31.25
4,1746313005511.625,-62.01171875,-40.52734375,-31.25,-40.0390625
5,1746313005515.5312,-74.70703125,-39.0625,-26.3671875,-38.0859375
6,1746313005519.4375,-51.26953125,-41.50390625,-34.1796875,-28.3203125
7,1746313005523.3438,-40.52734375,-44.43359375,-35.15625,-7.8125
8,1746313005527.25,-41.015625,-35.64453125,-32.2265625,-26.3671875
9,1746313005531.1562,-40.52734375,-30.2734375,-36.62109375,-56.640625
10,1746313005535.0625,-44.921875,-26.3671875,-40.0390625,-53.7109375
11,1746313005538.9688,-36.62109375,-32.2265625,-43.45703125,-47.8515625
0,1746313005542.875,-14.16015625,-39.0625,-41.015625,-25.390625
1,1746313005546.7812,-27.34375,-34.1796875,-33.69140625,-22.94921875
2,1746313005550.6875,-47.8515625,-28.80859375,-33.203125,-38.57421875
3,1746313005554.5938,-39.55078125,-28.3203125,-34.66796875,-44.43359375
4,1746313005558.5,-27.34375,-32.71484375,-30.2734375,-23.4375
5,1746313005562.4062,-32.71484375,-32.2265625,-29.78515625,-21.97265625
6,1746313005566.3125,-46.38671875,-26.85546875,-30.76171875,-41.015625
7,1746313005570.2188,-40.52734375,-30.2734375,-34.66796875,-23.4375
8,1746313005574.125,-41.015625,-37.59765625,-38.57421875,-32.2265625
9,1746313005578.0312,-57.6171875,-36.1328125,-39.0625,-45.8984375
10,1746313005581.9375,-56.640625,-41.015625,-44.921875,-51.26953125
11,1746313005585.8438,-56.15234375,-45.41015625,-45.8984375,-67.87109375
0,1746313005589.75,-61.5234375,-42.48046875,-42.96875,-59.08203125
1,1746313005593.6562,-47.36328125,-41.9921875,-41.9921875,-43.9453125
2,1746313005597.5625,-30.76171875,-41.50390625,-38.57421875,-32.2265625
3,1746313005601.4688,-49.8046875,-36.62109375,-40.52734375,-39.0625
4,1746313005605.375,-37.59765625,-38.0859375,-41.015625,-42.96875
5,1746313005609.2812,-19.53125,-43.45703125,-37.59765625,-27.83203125
6,1746313005613.1875,-47.36328125,-41.015625,-35.15625,-12.6953125
7,1746313005617.0938,-29.296875,-34.66796875,-36.62109375,-24.4140625
8,1746313005621,-30.76171875,-26.3671875,-38.57421875,-33.69140625
9,1746313005624.9062,-35.15625,-31.73828125,-34.66796875,-22.4609375
10,1746313005628.8125,-30.2734375,-40.0390625,-32.71484375,-23.4375
11,1746313005632.7188,-42.96875,-38.0859375,-37.59765625,-42.96875
0,1746313005636.625,-45.8984375,-34.66796875,-36.1328125,-47.36328125
1,1746313005640.5312,-33.203125,-33.203125,-32.2265625,-37.59765625
2,1746313005644.4375,-21.484375,-31.25,-34.66796875,-17.578125
3,1746313005648.3438,-21.484375,-33.69140625,-34.66796875,-9.765625
4,1746313005652.25,-30.2734375,-44.43359375,-36.1328125,-40.0390625
5,1746313005656.1562,-35.15625,-42.96875,-32.71484375,-44.921875
6,1746313005660.0625,-30.76171875,-32.2265625,-31.73828125,-49.31640625
7,1746313005663.9688,-25.390625,-30.2734375,-37.59765625,-47.36328125
8,1746313005667.875,-27.83203125,-32.71484375,-33.69140625,-28.3203125
9,1746313005671.7812,-33.203125,-30.76171875,-30.2734375,-43.9453125
10,1746313005675.6875,-30.2734375,-29.296875,-30.2734375,-32.2265625
11,1746313005679.5938,-27.34375,-27.83203125,-29.296875,-13.18359375
0,1746313005683.5,-21.97265625,-26.85546875,-26.85546875,-23.92578125
1,1746313005687.4062,-33.203125,-28.3203125,-28.80859375,-43.9453125
2,1746313005691.3125,-28.3203125,-34.66796875,-31.25,-36.1328125
3,1746313005695.2188,-31.25,-37.109375,-31.73828125,-44.43359375
4,1746313005699.125,-20.99609375,-32.71484375,-30.76171875,-64.94140625
5,1746313005703.0312,-5.859375,-30.2734375,-31.73828125,-57.6171875
6,1746313005706.9375,-27.34375,-30.76171875,-35.64453125,-48.33984375
7,1746313005710.8438,-22.94921875,-28.80859375,-34.66796875,-46.875
8,1746313005714.75,-34.1796875,-28.3203125,-29.78515625,-65.4296875
9,1746313005718.6562,-31.73828125,-30.2734375,-34.66796875,-63.4765625
10,1746313005722.5625,-25.87890625,-27.34375,-36.62109375,-41.9921875
11,1746313005726.4688,-35.15625,-31.73828125,-28.3203125,-31.25
0,1746313005730.375,-26.85546875,-33.203125,-26.3671875,-48.828125
1,1746313005734.2812,-19.53125,-28.3203125,-24.90234375,-25.87890625
2,1746313005738.1875,-20.99609375,-27.34375,-29.78515625,-23.4375
3,1746313005742.0938,-30.76171875,-29.296875,-31.73828125,-64.94140625
4,1746313005746,-36.1328125,-32.71484375,-26.85546875,-29.78515625
5,1746313005749.9062,-44.921875,-29.78515625,-21.97265625,-20.5078125
6,1746313005753.8125,-36.1328125,-28.80859375,-19.53125,-60.546875
7,1746313005757.7188,-35.15625,-27.83203125,-27.83203125,-69.82421875
8,1746313005761.625,-3.41796875,-29.78515625,-25.87890625,-45.41015625
9,1746313005765.5312,-17.578125,-30.76171875,-20.5078125,-47.8515625
10,1746313005769.4375,-62.98828125,-31.25,-25.87890625,-64.94140625
11,1746313005773.3438,-61.03515625,-27.34375,-28.3203125,-55.6640625
0,1746313005777.25,-32.2265625,-24.4140625,-27.34375,-54.6875
1,1746313005781.1562,-25.87890625,-37.109375,-27.34375,-58.10546875
2,1746313005785.0625,-41.50390625,-40.0390625,-25.390625,-53.22265625
3,1746313005788.9688,-26.85546875,-34.1796875,-23.4375,-40.52734375
4,1746313005792.875,-20.99609375,-27.83203125,-26.3671875,-28.80859375
5,1746313005796.7812,-27.83203125,-25.87890625,-29.78515625,-30.2734375
6,1746313005800.6875,-22.4609375,-25.390625,-27.34375,-45.8984375
7,1746313005804.5938,-17.578125,-25.87890625,-27.83203125,-36.1328125
8,1746313005808.5,-8.30078125,-27.34375,-29.296875,-26.85546875
9,1746313005812.4062,-8.7890625,-27.34375,-26.3671875,-46.38671875
10,1746313005816.3125,-31.25,-32.2265625,-29.78515625,-48.828125
11,1746313005820.2188,-30.76171875,-30.76171875,-28.3203125,-32.71484375
0,1746313005824.125,-28.80859375,-27.34375,-26.85546875,-30.2734375
1,1746313005828.0312,-18.06640625,-29.78515625,-31.25,-38.57421875
2,1746313005831.9375,-21.97265625,-32.2265625,-31.73828125,-34.1796875
3,1746313005835.8438,-44.921875,-31.73828125,-25.390625,-38.0859375
4,1746313005839.75,-22.4609375,-28.3203125,-22.4609375,-60.05859375
5,1746313005843.6562,-19.53125,-24.4140625,-24.90234375,-51.7578125
6,1746313005847.5625,-30.2734375,-29.296875,-25.87890625,-16.11328125
7,1746313005851.4688,-18.06640625,-29.78515625,-30.2734375,-25.390625
8,1746313005855.375,-25.87890625,-27.34375,-30.2734375,-57.12890625
9,1746313005859.2812,-16.11328125,-27.83203125,-29.296875,-44.43359375
10,1746313005863.1875,-24.90234375,-29.296875,-32.71484375,-54.6875
11,1746313005867.0938,-20.5078125,-26.3671875,-28.80859375,-54.6875
0,1746313005871,14.16015625,-23.4375,-25.390625,-42.48046875
1,1746313005874.9062,-15.625,-24.90234375,-30.2734375,-50.29296875
2,1746313005878.8125,-58.59375,-28.80859375,-29.78515625,-62.98828125
3,1746313005882.7188,-33.203125,-30.76171875,-27.83203125,-29.296875
4,1746313005886.625,-38.0859375,-28.3203125,-29.78515625,-8.7890625
5,1746313005890.5312,-41.015625,-32.2265625,-29.296875,-37.59765625
6,1746313005894.4375,-33.203125,-33.69140625,-32.2265625,-41.50390625
7,1746313005898.3438,-31.25,-34.66796875,-39.0625,-45.41015625
8,1746313005902.25,-28.3203125,-38.57421875,-37.59765625,-39.55078125
9,1746313005906.1562,-31.25,-37.59765625,-34.1796875,-34.1796875
10,1746313005910.0625,-24.90234375,-31.25,-33.203125,-41.50390625
11,1746313005913.9688,-31.73828125,-30.2734375,-31.25,-34.66796875
0,1746313005917.875,-19.04296875,-25.87890625,-32.2265625,-36.62109375
1,1746313005921.7812,4.39453125,-30.2734375,-33.69140625,-34.1796875
2,1746313005925.6875,-30.2734375,-39.0625,-33.69140625,-41.015625
3,1746313005929.5938,-47.8515625,-33.203125,-34.1796875,-53.7109375
4,1746313005933.5,-50.78125,-29.78515625,-30.2734375,-46.875
5,1746313005937.4062,-27.83203125,-28.80859375,-23.92578125,-46.875
6,1746313005941.3125,14.16015625,-25.87890625,-28.3203125,-30.2734375
7,1746313005945.2188,-27.34375,-32.2265625,-32.2265625,-1.46484375
8,1746313005949.125,-27.83203125,-34.66796875,-28.80859375,-34.1796875
9,1746313005953.0312,-15.625,-30.2734375,-31.25,-53.22265625
10,1746313005956.9375,-48.828125,-35.15625,-31.73828125,-39.0625
11,1746313005960.8438,-41.50390625,-40.0390625,-28.3203125,-45.41015625
0,1746313005964.75,-42.48046875,-40.0390625,-28.80859375,-43.45703125
1,1746313005968.6562,-47.8515625,-37.59765625,-33.203125,-34.1796875
2,1746313005972.5625,-31.25,-38.57421875,-31.73828125,-50.78125
3,1746313005976.4688,-24.90234375,-36.1328125,-29.296875,-59.08203125
4,1746313005980.375,-32.2265625,-36.62109375,-30.76171875,-51.26953125
5,1746313005984.2812,-13.671875,-35.64453125,-26.3671875,-39.0625
6,1746313005988.1875,6.8359375,-33.203125,-23.4375,-31.25
7,1746313005992.0938,-24.90234375,-36.62109375,-22.4609375,-35.64453125
8,1746313005996,-38.57421875,-31.25,-23.92578125,-45.8984375
9,1746313005999.9062,-12.6953125,-24.90234375,-26.3671875,-46.38671875
10,1746313006003.8125,0.48828125,-27.34375,-28.80859375,-44.921875
11,1746313006007.7188,-23.92578125,-31.73828125,-21.97265625,-45.8984375
0,1746313006011.625,-57.6171875,-28.3203125,-21.97265625,-61.03515625
1,1746313006015.5312,-62.98828125,-30.2734375,-26.85546875,-70.80078125
2,1746313006019.4375,-42.96875,-39.55078125,-20.99609375,-68.84765625
3,1746313006023.3438,-50.78125,-39.55078125,-14.6484375,-69.3359375
4,1746313006027.25,-61.5234375,-35.64453125,-13.18359375,-79.1015625
5,1746313006031.1562,-61.5234375,-36.1328125,-9.27734375,-84.47265625
6,1746313006035.0625,-82.51953125,-38.0859375,-8.7890625,-88.8671875
7,1746313006038.9688,-104.00390625,-34.1796875,-11.23046875,-103.02734375
8,1746313006042.875,-101.5625,-33.69140625,-4.39453125,-106.93359375
9,1746313006046.7812,-121.09375,-37.59765625,-2.44140625,-123.046875
10,1746313006050.6875,-141.6015625,-39.55078125,-8.7890625,-157.71484375
11,1746313006054.5938,-145.01953125,-37.109375,-13.18359375,-155.76171875
0,1746313006058.5,-140.625,-41.015625,-12.6953125,-145.99609375
1,1746313006062.4062,-140.13671875,-47.36328125,-3.90625,-157.71484375
2,1746313006066.3125,-144.04296875,-51.7578125,-2.44140625,-171.875
3,1746313006070.2188,-168.45703125,-49.8046875,-13.671875,-168.45703125
4,1746313006074.125,-194.3359375,-40.52734375,-10.7421875,-146.484375
5,1746313006078.0312,-157.2265625,-36.1328125,-16.11328125,-157.2265625
6,1746313006081.9375,-134.765625,-42.48046875,-30.76171875,-199.21875
7,1746313006085.8438,-166.9921875,-46.38671875,-33.203125,-196.2890625
8,1746313006089.75,-185.546875,-36.62109375,-33.69140625,-173.33984375
9,1746313006093.6562,-145.99609375,-31.73828125,-30.76171875,-150.87890625
10,1746313006097.5625,-133.30078125,-22.94921875,-35.15625,-138.18359375
11,1746313006101.4688,-130.37109375,-16.6015625,-40.0390625,-142.578125
0,1746313006105.375,-92.7734375,-14.16015625,-32.2265625,-128.90625
1,1746313006109.2812,-90.8203125,-12.6953125,-25.87890625,-118.65234375
2,1746313006113.1875,-104.98046875,-15.13671875,-29.78515625,-111.328125
3,1746313006117.0938,-67.87109375,-18.5546875,-35.64453125,-83.49609375
4,1746313006121,-66.89453125,-21.97265625,-38.0859375,-90.33203125
5,1746313006124.9062,-69.82421875,-26.3671875,-48.33984375,-87.890625
6,1746313006128.8125,-55.6640625,-27.83203125,-58.59375,-53.7109375
7,1746313006132.7188,-53.7109375,-29.296875,-52.24609375,-52.24609375
8,1746313006136.625,-22.94921875,-29.296875,-47.8515625,-60.546875
9,1746313006140.5312,13.671875,-26.85546875,-51.26953125,-55.17578125
10,1746313006144.4375,11.23046875,-27.34375,-56.15234375,-19.04296875
11,1746313006148.3438,0.9765625,-27.83203125,-60.05859375,-37.109375
0,1746313006152.25,-8.30078125,-25.390625,-56.640625,-37.59765625
1,1746313006156.1562,22.94921875,-23.4375,-56.15234375,4.39453125
2,1746313006160.0625,35.15625,-24.4140625,-56.640625,-4.8828125
3,1746313006163.9688,-13.18359375,-30.2734375,-53.7109375,-15.625
4,1746313006167.875,-2.44140625,-36.1328125,-53.22265625,-10.7421875
5,1746313006171.7812,16.6015625,-31.73828125,-54.19921875,-0.48828125
6,1746313006175.6875,26.3671875,-30.2734375,-60.546875,-0.9765625
7,1746313006179.5938,20.5078125,-35.15625,-64.453125,2.9296875
8,1746313006183.5,9.27734375,-32.71484375,-56.640625,-8.30078125
9,1746313006187.4062,24.4140625,-30.76171875,-54.6875,-15.625
10,1746313006191.3125,29.78515625,-27.83203125,-58.59375,-1.953125
11,1746313006195.2188,21.484375,-27.83203125,-56.640625,2.44140625
0,1746313006199.125,3.90625,-33.203125,-45.8984375,0.9765625
1,1746313006203.0312,5.37109375,-32.2265625,-45.8984375,-10.7421875
2,1746313006206.9375,12.20703125,-28.80859375,-48.33984375,-2.44140625
3,1746313006210.8438,15.625,-28.80859375,-44.921875,0.9765625
4,1746313006214.75,26.85546875,-30.2734375,-45.41015625,-18.5546875
5,1746313006218.6562,8.30078125,-29.78515625,-49.8046875,-27.83203125
6,1746313006222.5625,7.8125,-27.83203125,-47.36328125,0.48828125
7,1746313006226.4688,28.80859375,-24.90234375,-42.48046875,-6.8359375
8,1746313006230.375,12.6953125,-29.78515625,-45.8984375,-25.87890625
9,1746313006234.2812,3.90625,-31.25,-44.921875,-10.25390625
10,1746313006238.1875,24.4140625,-23.92578125,-39.0625,-0.9765625
11,1746313006242.0938,18.5546875,-30.2734375,-40.0390625,-4.39453125
0,1746313006246,-5.859375,-33.69140625,-47.36328125,-17.578125
1,1746313006249.9062,5.859375,-29.296875,-43.9453125,-19.53125
2,1746313006253.8125,11.23046875,-21.484375,-37.59765625,-19.53125
3,1746313006257.7188,33.203125,-18.06640625,-38.0859375,-20.99609375
4,1746313006261.625,48.828125,-25.390625,-37.109375,6.8359375
5,1746313006265.5312,3.90625,-27.34375,-39.0625,26.85546875
6,1746313006269.4375,-15.625,-29.78515625,-41.9921875,-5.37109375
7,1746313006273.3438,0.9765625,-28.80859375,-38.57421875,-17.08984375
8,1746313006277.25,1.953125,-25.390625,-37.59765625,-15.625
9,1746313006281.1562,-6.8359375,-31.25,-40.0390625,-30.2734375
10,1746313006285.0625,-13.18359375,-28.80859375,-38.0859375,-17.08984375
11,1746313006288.9688,-11.71875,-22.4609375,-32.71484375,5.37109375
0,1746313006292.875,-7.8125,-22.94921875,-26.3671875,0.9765625
1,1746313006296.7812,-3.41796875,-28.3203125,-24.90234375,0.48828125
2,1746313006300.6875,11.23046875,-34.1796875,-26.3671875,-8.30078125
3,1746313006304.5938,6.34765625,-35.64453125,-24.4140625,-18.06640625
4,1746313006308.5,-4.39453125,-24.90234375,-25.390625,-16.11328125
5,1746313006312.4062,15.625,-11.23046875,-20.01953125,-2.9296875
6,1746313006316.3125,43.45703125,-4.8828125,-11.23046875,1.953125
7,1746313006320.2188,32.2265625,2.44140625,-10.7421875,-10.25390625
8,1746313006324.125,1.46484375,5.859375,-6.34765625,12.20703125
9,1746313006328.0312,11.71875,10.7421875,0.9765625,33.69140625
10,1746313006331.9375,14.6484375,14.6484375,5.859375,16.11328125
11,1746313006335.8438,29.78515625,16.6015625,9.27734375,4.39453125
0,1746313006339.75,36.62109375,16.6015625,10.7421875,22.4609375
1,1746313006343.6562,30.2734375,9.27734375,10.25390625,30.2734375
2,1746313006347.5625,31.25,-0.48828125,13.671875,17.08984375
3,1746313006351.4688,48.33984375,-11.71875,18.06640625,20.01953125
4,1746313006355.375,63.4765625,2.9296875,13.671875,29.78515625
5,1746313006359.2812,58.59375,33.69140625,9.765625,9.27734375
6,1746313006363.1875,45.8984375,44.921875,15.13671875,1.953125
7,1746313006367.0938,63.4765625,30.76171875,22.4609375,17.578125
8,1746313006371,61.03515625,11.71875,22.4609375,32.71484375
9,1746313006374.9062,14.16015625,10.7421875,20.01953125,66.40625
10,1746313006378.8125,7.32421875,18.5546875,18.5546875,68.359375
11,1746313006382.7188,27.34375,-18.5546875,18.06640625,33.69140625
0,1746313006386.625,19.53125,-5.859375,8.7890625,27.83203125
1,1746313006390.5312,-0.9765625,54.19921875,0.48828125,22.4609375
2,1746313006394.4375,1.46484375,46.38671875,-4.39453125,-4.8828125
3,1746313006398.3438,4.39453125,17.578125,-13.18359375,-6.8359375
4,1746313006402.25,21.97265625,1.953125,-6.8359375,2.9296875
5,1746313006406.1562,39.55078125,15.625,7.8125,12.6953125
6,1746313006410.0625,36.1328125,35.64453125,6.34765625,-0.48828125
7,1746313006413.9688,39.0625,30.76171875,3.41796875,2.9296875
8,1746313006417.875,84.47265625,-19.53125,11.23046875,45.41015625
9,1746313006421.7812,86.42578125,-45.8984375,-0.48828125,40.0390625
10,1746313006425.6875,55.17578125,-23.92578125,-6.34765625,31.25
11,1746313006429.5938,62.98828125,-49.31640625,-0.48828125,48.828125
0,1746313006433.5,77.1484375,-40.0390625,-12.6953125,29.296875
1,1746313006437.4062,58.59375,3.90625,-20.99609375,32.71484375
2,1746313006441.3125,17.08984375,18.06640625,-14.6484375,48.828125
3,1746313006445.2188,10.25390625,-38.57421875,-8.7890625,25.390625
4,1746313006449.125,-20.5078125,-106.4453125,-3.90625,-2.44140625
5,1746313006453.0312,-22.94921875,-31.73828125,0.48828125,-16.6015625
6,1746313006456.9375,7.8125,-7.32421875,-11.71875,-12.6953125
7,1746313006460.8438,15.625,-48.33984375,-4.8828125,6.8359375
8,1746313006464.75,31.25,-27.34375,18.06640625,5.37109375
9,1746313006468.6562,12.6953125,-5.859375,23.4375,-6.34765625
10,1746313006472.5625,-24.4140625,-12.6953125,13.18359375,1.953125
11,1746313006476.4688,41.015625,-22.94921875,-8.7890625,16.6015625
0,1746313006480.375,41.9921875,-69.3359375,-17.08984375,0
1,1746313006484.2812,-45.8984375,-58.10546875,-27.83203125,-8.30078125
2,1746313006488.1875,-10.7421875,-50.29296875,-36.62109375,28.3203125
3,1746313006492.0938,-23.4375,-125.48828125,-18.5546875,19.53125
4,1746313006496,-72.265625,-12.6953125,-48.828125,-70.3125
5,1746313006499.9062,-89.35546875,82.03125,-73.2421875,-144.04296875
6,1746313006503.8125,-162.59765625,8.30078125,4.8828125,-141.11328125
7,1746313006507.7188,-194.3359375,-8.30078125,33.203125,-112.79296875
8,1746313006511.625,-180.17578125,28.80859375,2.9296875,-102.5390625
9,1746313006515.5312,-172.36328125,39.55078125,-12.6953125,-112.3046875
10,1746313006519.4375,-177.734375,40.52734375,-21.97265625,-138.18359375
11,1746313006523.3438,-167.96875,37.109375,-27.34375,-133.30078125
0,1746313006527.25,-136.23046875,25.87890625,-36.1328125,-132.8125
1,1746313006531.1562,-128.41796875,22.94921875,-37.59765625,-139.16015625
2,1746313006535.0625,-139.16015625,1.46484375,-21.484375,-106.93359375
3,1746313006538.9688,-124.51171875,-32.2265625,-14.6484375,-85.44921875
4,1746313006542.875,-137.20703125,-42.48046875,5.859375,-121.58203125
5,1746313006546.7812,-201.171875,-37.109375,17.08984375,-145.01953125
6,1746313006550.6875,-208.49609375,16.6015625,1.953125,-112.79296875
7,1746313006554.5938,-177.734375,53.7109375,-23.92578125,-115.72265625
8,1746313006558.5,-147.94921875,32.2265625,-0.48828125,-114.74609375
9,1746313006562.4062,-115.72265625,27.83203125,39.55078125,-93.75
10,1746313006566.3125,-119.62890625,39.0625,11.23046875,-109.86328125
11,1746313006570.2188,-104.98046875,9.27734375,-11.71875,-117.67578125
0,1746313006574.125,-99.12109375,-40.0390625,25.87890625,-83.984375
1,1746313006578.0312,-139.6484375,5.859375,66.89453125,-65.4296875
2,1746313006581.9375,-156.25,70.3125,16.6015625,-107.91015625
3,1746313006585.8438,-28.80859375,176.26953125,71.2890625,-46.875
4,1746313006589.75,139.16015625,232.421875,232.91015625,130.859375
5,1746313006593.6562,214.84375,190.4296875,267.578125,217.28515625
6,1746313006597.5625,187.01171875,276.3671875,222.16796875,161.62109375
7,1746313006601.4688,121.58203125,323.73046875,207.51953125,145.01953125
8,1746313006605.375,120.1171875,282.2265625,216.796875,165.0390625
9,1746313006609.2812,132.32421875,237.79296875,209.9609375,169.43359375
10,1746313006613.1875,125.48828125,233.88671875,191.89453125,172.8515625
11,1746313006617.0938,83.0078125,234.375,177.24609375,152.34375
0,1746313006621,89.35546875,169.921875,174.31640625,154.78515625
1,1746313006624.9062,159.66796875,108.3984375,161.62109375,189.94140625
2,1746313006628.8125,174.31640625,111.328125,134.765625,187.98828125
3,1746313006632.7188,138.18359375,155.2734375,107.91015625,151.3671875
4,1746313006636.625,169.43359375,186.03515625,97.65625,154.78515625
5,1746313006640.5312,208.984375,153.3203125,113.28125,173.828125
6,1746313006644.4375,157.2265625,73.73046875,133.30078125,182.6171875
7,1746313006648.3438,104.98046875,47.36328125,112.79296875,139.16015625
8,1746313006652.25,129.8828125,107.421875,99.12109375,144.04296875
9,1746313006656.1562,136.23046875,125.9765625,88.37890625,158.203125
10,1746313006660.0625,139.6484375,98.14453125,101.5625,180.17578125
11,1746313006663.9688,151.85546875,121.09375,123.53515625,163.0859375
0,1746313006667.875,137.6953125,141.6015625,99.609375,143.5546875
1,1746313006671.7812,108.3984375,129.39453125,95.703125,146.484375
2,1746313006675.6875,107.91015625,118.65234375,87.890625,128.41796875
3,1746313006679.5938,161.1328125,108.88671875,55.6640625,141.6015625
4,1746313006683.5,175.29296875,112.79296875,61.5234375,151.85546875
5,1746313006687.4062,166.015625,108.3984375,79.58984375,181.640625
6,1746313006691.3125,154.296875,83.0078125,75.1953125,188.96484375
7,1746313006695.2188,99.12109375,85.44921875,70.3125,135.7421875
8,1746313006699.125,54.19921875,106.93359375,68.84765625,105.95703125
9,1746313006703.0312,90.8203125,86.42578125,73.2421875,125.48828125
10,1746313006706.9375,105.95703125,81.0546875,60.546875,133.7890625
11,1746313006710.8438,98.6328125,93.26171875,49.31640625,120.60546875
0,1746313006714.75,141.11328125,73.73046875,49.31640625,103.02734375
1,1746313006718.6562,96.19140625,53.7109375,61.03515625,105.46875
2,1746313006722.5625,55.17578125,18.5546875,48.828125,125.48828125
3,1746313006726.4688,110.3515625,34.1796875,30.2734375,109.86328125
4,1746313006730.375,59.5703125,61.03515625,21.97265625,72.265625
5,1746313006734.2812,21.97265625,26.3671875,42.48046875,69.3359375
6,1746313006738.1875,65.4296875,18.5546875,63.4765625,129.39453125
7,1746313006742.0938,70.3125,35.15625,28.3203125,148.4375
8,1746313006746,51.26953125,31.73828125,13.671875,101.5625
9,1746313006749.9062,38.0859375,51.26953125,27.34375,104.4921875
10,1746313006753.8125,45.41015625,59.08203125,34.1796875,122.55859375
11,1746313006757.7188,13.671875,30.2734375,31.73828125,102.05078125
0,1746313006761.625,-17.578125,24.90234375,27.34375,70.80078125
1,1746313006765.5312,-20.5078125,8.30078125,3.41796875,66.89453125
2,1746313006769.4375,-4.8828125,-17.578125,0.9765625,86.42578125
3,1746313006773.3438,24.4140625,-0.48828125,23.4375,85.44921875
4,1746313006777.25,17.08984375,11.71875,20.5078125,66.40625
5,1746313006781.1562,15.13671875,16.11328125,6.8359375,65.91796875
6,1746313006785.0625,49.8046875,3.41796875,13.671875,56.640625
7,1746313006788.9688,35.64453125,-26.3671875,21.484375,45.8984375
8,1746313006792.875,17.08984375,-28.3203125,10.7421875,60.05859375
9,1746313006796.7812,31.25,-37.109375,-18.06640625,60.05859375
10,1746313006800.6875,76.171875,-14.6484375,-22.4609375,42.96875
11,1746313006804.5938,-14.6484375,32.2265625,1.953125,33.69140625
0,1746313006808.5,-129.8828125,3.90625,15.625,7.8125
1,1746313006812.4062,-81.0546875,-18.06640625,-17.08984375,13.18359375
2,1746313006816.3125,-37.109375,-6.8359375,-39.55078125,56.640625
3,1746313006820.2188,-37.59765625,-5.859375,-44.921875,51.26953125
4,1746313006824.125,-32.2265625,-13.18359375,-19.53125,19.04296875
5,1746313006828.0312,17.08984375,-42.96875,37.59765625,4.39453125
6,1746313006831.9375,7.8125,-48.33984375,44.921875,1.953125
7,1746313006835.8438,-16.6015625,-5.859375,20.5078125,1.953125
8,1746313006839.75,-1.46484375,16.6015625,-3.41796875,-5.859375
9,1746313006843.6562,26.85546875,21.97265625,-9.765625,5.859375
10,1746313006847.5625,-5.859375,-10.7421875,-28.80859375,5.859375
11,1746313006851.4688,-57.12890625,-33.69140625,-61.03515625,-1.46484375
0,1746313006855.375,-20.5078125,-1.953125,-31.25,2.9296875
1,1746313006859.2812,19.53125,22.94921875,3.41796875,8.7890625
2,1746313006863.1875,-16.11328125,1.953125,7.32421875,-4.8828125
3,1746313006867.0938,-38.0859375,-7.8125,6.34765625,-11.23046875
4,1746313006871,-20.01953125,-19.53125,-6.34765625,-8.30078125
5,1746313006874.9062,-27.34375,-39.55078125,-33.69140625,-3.41796875
6,1746313006878.8125,-58.59375,-28.3203125,-36.62109375,-2.9296875
7,1746313006882.7188,-36.62109375,-43.45703125,-30.2734375,-4.39453125
8,1746313006886.625,-17.578125,-58.10546875,1.46484375,-1.46484375
9,1746313006890.5312,-23.92578125,-27.83203125,20.01953125,-16.11328125
10,1746313006894.4375,-0.9765625,-17.578125,-1.46484375,0.48828125
11,1746313006898.3438,-17.578125,-14.16015625,1.953125,11.23046875
0,1746313006902.25,-43.45703125,-6.34765625,-15.625,17.08984375
1,1746313006906.1562,-33.69140625,-14.16015625,-27.83203125,30.2734375
2,1746313006910.0625,-34.1796875,-34.66796875,-14.6484375,-4.8828125
3,1746313006913.9688,-43.45703125,-12.6953125,4.8828125,-10.7421875
4,1746313006917.875,-49.8046875,0.48828125,-2.44140625,10.7421875
5,1746313006921.7812,-30.2734375,-26.85546875,-13.671875,-5.859375
6,1746313006925.6875,-16.11328125,-31.73828125,-41.015625,-25.390625
7,1746313006929.5938,-10.7421875,-64.453125,-56.640625,-18.5546875
8,1746313006933.5,18.06640625,-78.61328125,-28.3203125,13.671875
9,1746313006937.4062,5.37109375,-34.66796875,-3.41796875,22.94921875
10,1746313006941.3125,-47.8515625,8.30078125,-13.18359375,-21.484375
11,1746313006945.2188,-55.17578125,10.25390625,-27.83203125,-20.01953125
0,1746313006949.125,-28.80859375,1.953125,-35.15625,-0.9765625
1,1746313006953.0312,-2.9296875,-13.18359375,-38.0859375,-3.41796875
2,1746313006956.9375,34.66796875,-21.484375,-35.64453125,-8.30078125
3,1746313006960.8438,32.2265625,-30.2734375,-26.85546875,-31.73828125
4,1746313006964.75,-47.8515625,-41.015625,-20.99609375,-19.53125
5,1746313006968.6562,-23.4375,-26.85546875,-31.73828125,43.9453125
6,1746313006972.5625,32.2265625,-34.66796875,-42.96875,43.9453125
7,1746313006976.4688,-20.01953125,-49.31640625,-24.4140625,-7.32421875
8,1746313006980.375,-79.1015625,-1.953125,6.34765625,-37.59765625
9,1746313006984.2812,-85.44921875,14.16015625,7.32421875,-53.7109375
10,1746313006988.1875,-78.61328125,-4.39453125,-2.44140625,-37.109375
11,1746313006992.0938,-51.26953125,-7.8125,-9.27734375,6.34765625
0,1746313006996,-20.99609375,-7.8125,-12.20703125,6.8359375
1,1746313006999.9062,-15.625,-14.16015625,-14.16015625,-17.08984375
2,1746313007003.8125,-13.18359375,-11.23046875,-5.37109375,16.6015625
3,1746313007007.7188,-32.71484375,-32.2265625,-14.6484375,11.71875
4,1746313007011.625,-31.25,-46.38671875,-37.109375,-14.6484375
5,1746313007015.5312,-22.4609375,-22.94921875,-26.3671875,-6.8359375
6,1746313007019.4375,-24.4140625,-15.625,-32.2265625,-9.27734375
7,1746313007023.3438,10.25390625,-10.25390625,-58.10546875,-12.20703125
8,1746313007027.25,25.87890625,-15.13671875,-49.8046875,0
9,1746313007031.1562,1.46484375,-23.92578125,-24.90234375,-24.4140625
10,1746313007035.0625,-24.4140625,-28.80859375,-17.08984375,-24.90234375
11,1746313007038.9688,-23.92578125,-29.296875,-10.7421875,-9.765625
0,1746313007042.875,-12.6953125,-11.23046875,-9.765625,-30.76171875
1,1746313007046.7812,-65.91796875,-11.71875,-19.53125,-22.4609375
2,1746313007050.6875,-64.453125,-20.5078125,-17.578125,-3.41796875
3,1746313007054.5938,-38.0859375,-23.4375,-15.13671875,0.9765625
4,1746313007058.5,-52.734375,-20.99609375,-27.34375,1.953125
5,1746313007062.4062,-56.15234375,-7.32421875,-53.7109375,22.94921875
6,1746313007066.3125,-27.83203125,-31.25,-47.36328125,29.296875
7,1746313007070.2188,-11.71875,-49.8046875,-15.13671875,-23.92578125
8,1746313007074.125,-29.78515625,-15.13671875,-5.859375,-35.64453125
9,1746313007078.0312,-25.87890625,-15.13671875,-7.8125,1.46484375
10,1746313007081.9375,-11.23046875,-27.34375,-51.26953125,-13.18359375
11,1746313007085.8438,-33.69140625,-31.73828125,-52.734375,-9.27734375
0,1746313007089.75,-23.92578125,-17.08984375,-23.4375,-1.46484375
1,1746313007093.6562,-23.92578125,10.25390625,-15.13671875,-17.08984375
2,1746313007097.5625,1.953125,-14.16015625,-3.90625,-8.7890625
3,1746313007101.4688,28.80859375,-45.41015625,-19.04296875,-7.32421875
4,1746313007105.375,-12.20703125,-20.99609375,-14.6484375,4.39453125
5,1746313007109.2812,-39.55078125,-13.671875,-38.0859375,2.9296875
6,1746313007113.1875,-59.08203125,-16.6015625,-60.05859375,0.9765625
7,1746313007117.0938,-45.41015625,-8.7890625,-38.0859375,18.5546875
8,1746313007121,-12.6953125,-3.90625,-1.953125,12.20703125
9,1746313007124.9062,0.48828125,-31.73828125,9.27734375,7.8125
10,1746313007128.8125,-37.59765625,-73.2421875,-19.04296875,-26.85546875
11,1746313007132.7188,-61.5234375,-54.19921875,-25.390625,-42.48046875
0,1746313007136.625,-43.45703125,-8.30078125,-29.78515625,-43.9453125
1,1746313007140.5312,-35.15625,20.01953125,-28.80859375,-37.59765625
2,1746313007144.4375,-53.22265625,-7.8125,-14.6484375,-10.25390625
3,1746313007148.3438,-31.73828125,-37.59765625,-32.2265625,-23.92578125
4,1746313007152.25,-11.23046875,-34.1796875,-62.5,-26.85546875
5,1746313007156.1562,-21.484375,-32.2265625,-47.8515625,-25.87890625
6,1746313007160.0625,-48.828125,-10.7421875,-20.5078125,-27.34375
7,1746313007163.9688,-52.734375,2.9296875,-0.9765625,-28.80859375
8,1746313007167.875,-45.8984375,2.9296875,-11.71875,-31.25
9,1746313007171.7812,9.765625,-21.484375,-38.57421875,15.625
10,1746313007175.6875,36.62109375,-45.41015625,-28.80859375,-4.8828125
11,1746313007179.5938,-59.08203125,-14.6484375,-17.578125,-63.4765625
0,1746313007183.5,-52.734375,-41.015625,-4.8828125,-35.15625
1,1746313007187.4062,-41.015625,-68.359375,-21.97265625,-18.5546875
2,1746313007191.3125,-59.08203125,-17.578125,-32.71484375,-24.90234375
3,1746313007195.2188,-35.15625,11.71875,-8.30078125,-16.6015625
4,1746313007199.125,-39.55078125,-21.484375,-18.5546875,-23.4375
5,1746313007203.0312,-41.015625,-36.62109375,-49.8046875,-24.4140625
6,1746313007206.9375,-41.015625,-19.04296875,-48.33984375,-14.16015625
7,1746313007210.8438,-42.96875,-52.734375,-17.08984375,-1.46484375
8,1746313007214.75,-37.109375,-48.33984375,-18.06640625,-21.97265625
9,1746313007218.6562,-38.0859375,-22.4609375,-5.859375,-21.484375
10,1746313007222.5625,-29.78515625,-26.3671875,-16.6015625,22.4609375
11,1746313007226.4688,-43.9453125,-17.08984375,-57.6171875,-3.41796875
0,1746313007230.375,-39.55078125,-25.87890625,-33.69140625,-25.390625
1,1746313007234.2812,-31.25,-15.625,6.8359375,-16.11328125
2,1746313007238.1875,-35.15625,-37.59765625,-7.8125,-41.50390625
3,1746313007242.0938,-26.85546875,-63.4765625,-43.9453125,-31.25
4,1746313007246,-18.5546875,-43.9453125,-50.78125,8.7890625
5,1746313007249.9062,-39.0625,-37.59765625,-10.7421875,0.48828125
6,1746313007253.8125,-38.57421875,-18.5546875,-0.48828125,-13.18359375
7,1746313007257.7188,-6.8359375,-19.53125,-24.90234375,-33.69140625
8,1746313007261.625,-26.3671875,-47.8515625,-26.3671875,-46.875
9,1746313007265.5312,-62.98828125,-39.0625,-13.671875,-30.76171875
10,1746313007269.4375,-48.33984375,-23.4375,-21.484375,-15.13671875
11,1746313007273.3438,-1.46484375,-15.13671875,-18.5546875,-2.44140625
0,1746313007277.25,-0.48828125,-22.94921875,-13.18359375,-10.7421875
1,1746313007281.1562,-60.546875,-24.90234375,-48.33984375,-39.0625
2,1746313007285.0625,-79.58984375,-45.41015625,-48.33984375,-40.52734375
3,1746313007288.9688,-23.92578125,-64.453125,-66.89453125,-18.06640625
4,1746313007292.875,-28.80859375,-45.8984375,-73.73046875,0.9765625
5,1746313007296.7812,-60.05859375,-14.16015625,-0.9765625,-10.25390625
6,1746313007300.6875,-8.30078125,-4.8828125,0.9765625,-11.23046875
7,1746313007304.5938,-0.48828125,-16.11328125,-38.57421875,2.9296875
8,1746313007308.5,-42.48046875,-23.92578125,-24.90234375,-24.90234375
9,1746313007312.4062,-38.57421875,-18.5546875,-12.6953125,-43.45703125
10,1746313007316.3125,-41.015625,-30.76171875,-4.39453125,-10.7421875
11,1746313007320.2188,-27.34375,-34.1796875,-25.390625,-11.23046875
0,1746313007324.125,-37.59765625,-14.6484375,-63.96484375,-31.73828125
1,1746313007328.0312,-43.9453125,-41.50390625,-48.828125,-21.97265625
2,1746313007331.9375,-22.4609375,-47.8515625,-29.78515625,-22.94921875
3,1746313007335.8438,-5.37109375,-26.85546875,-35.15625,-15.13671875
4,1746313007339.75,19.53125,-41.015625,-38.0859375,0.48828125
5,1746313007343.6562,-20.5078125,-44.921875,-30.76171875,-12.6953125
6,1746313007347.5625,-61.03515625,-26.85546875,-19.53125,-37.59765625
7,1746313007351.4688,-12.20703125,-7.32421875,-18.5546875,-11.71875
8,1746313007355.375,-12.20703125,-6.8359375,-23.4375,-19.04296875
9,1746313007359.2812,-28.80859375,-3.90625,-16.6015625,-27.83203125
10,1746313007363.1875,-10.7421875,-54.6875,-24.4140625,0.48828125
11,1746313007367.0938,-14.16015625,-83.49609375,-47.36328125,-24.4140625
0,1746313007371,-19.53125,-23.4375,-56.640625,-45.41015625
1,1746313007374.9062,-53.7109375,-13.671875,-74.70703125,-24.4140625
2,1746313007378.8125,-83.49609375,-13.671875,-54.6875,-39.55078125
3,1746313007382.7188,-70.80078125,-25.87890625,-20.99609375,-58.59375
4,1746313007386.625,-54.6875,-44.43359375,-15.13671875,-43.9453125
5,1746313007390.5312,-8.30078125,-22.94921875,-11.71875,-30.76171875
6,1746313007394.4375,-10.25390625,-32.2265625,-37.59765625,-14.16015625
7,1746313007398.3438,-54.19921875,-33.69140625,-35.64453125,-28.80859375
8,1746313007402.25,-21.97265625,-31.73828125,-23.4375,-18.06640625
9,1746313007406.1562,-3.41796875,-45.41015625,-41.9921875,-4.8828125
10,1746313007410.0625,-50.29296875,-37.59765625,-45.8984375,-33.69140625
11,1746313007413.9688,-27.34375,-23.92578125,-34.66796875,-52.734375
0,1746313007417.875,14.6484375,-45.41015625,-35.64453125,-51.26953125
1,1746313007421.7812,-65.4296875,-35.64453125,-40.0390625,-44.921875
2,1746313007425.6875,-73.2421875,-5.859375,-59.5703125,-19.04296875
3,1746313007429.5938,-33.69140625,-41.9921875,-41.50390625,-5.37109375
4,1746313007433.5,-68.84765625,-44.43359375,6.34765625,-22.4609375
5,1746313007437.4062,-90.33203125,-12.6953125,-8.7890625,-47.8515625
6,1746313007441.3125,-42.96875,-29.296875,-12.20703125,-18.5546875
7,1746313007445.2188,-30.76171875,-53.22265625,-15.13671875,1.46484375
8,1746313007449.125,-22.4609375,-29.296875,-9.765625,-30.76171875
9,1746313007453.0312,-12.20703125,-33.203125,-22.4609375,-33.69140625
10,1746313007456.9375,1.46484375,-48.828125,-46.875,-4.8828125
11,1746313007460.8438,25.87890625,-40.52734375,-63.96484375,-8.7890625
0,1746313007464.75,-25.87890625,-35.15625,-51.7578125,-54.6875
1,1746313007468.6562,-62.5,-13.18359375,-30.2734375,-69.3359375
2,1746313007472.5625,-42.96875,-6.34765625,-42.48046875,-29.78515625
3,1746313007476.4688,-26.3671875,-35.64453125,-13.18359375,-8.30078125
4,1746313007480.375,-6.34765625,-40.0390625,-13.671875,-19.04296875
5,1746313007484.2812,-21.484375,-27.34375,-36.1328125,1.46484375
6,1746313007488.1875,6.34765625,-41.9921875,-20.99609375,8.7890625
7,1746313007492.0938,26.3671875,-43.9453125,-37.59765625,-16.11328125
8,1746313007496,-63.96484375,-38.0859375,-41.015625,-33.69140625
9,1746313007499.9062,-61.5234375,-37.109375,-8.30078125,-14.6484375
10,1746313007503.8125,-33.69140625,-32.71484375,5.859375,-1.46484375
11,1746313007507.7188,-42.48046875,-45.8984375,-42.96875,-1.46484375
0,1746313007511.625,7.32421875,-24.4140625,-41.9921875,0.9765625
1,1746313007515.5312,8.7890625,-41.9921875,-4.8828125,-17.08984375
2,1746313007519.4375,-30.2734375,-54.6875,-8.30078125,-42.48046875
3,1746313007523.3438,-51.26953125,-12.6953125,-35.15625,-57.12890625
4,1746313007527.25,-48.828125,-23.4375,-77.63671875,-35.15625
5,1746313007531.1562,-46.38671875,-48.828125,-65.4296875,0.48828125
6,1746313007535.0625,-41.015625,-35.64453125,-32.2265625,-33.69140625
7,1746313007538.9688,-33.69140625,-44.43359375,-5.859375,-64.453125
8,1746313007542.875,-11.23046875,-94.7265625,-9.765625,-24.90234375
9,1746313007546.7812,2.9296875,-49.8046875,-33.203125,-23.92578125
10,1746313007550.6875,-51.7578125,7.8125,-44.921875,-47.36328125
11,1746313007554.5938,-40.52734375,4.8828125,-33.203125,-24.90234375
0,1746313007558.5,-18.06640625,-16.11328125,-34.1796875,-12.6953125
1,1746313007562.4062,5.859375,-42.96875,-46.38671875,0.9765625
2,1746313007566.3125,3.41796875,-48.33984375,-43.45703125,-20.99609375
3,1746313007570.2188,-30.76171875,-53.22265625,-29.296875,-40.52734375
4,1746313007574.125,-1.953125,-34.66796875,-15.13671875,-2.44140625
5,1746313007578.0312,5.859375,-20.5078125,-43.45703125,-0.9765625
6,1746313007581.9375,-58.10546875,-10.25390625,-72.75390625,-11.71875
7,1746313007585.8438,-70.80078125,-10.7421875,-40.52734375,-0.48828125
8,1746313007589.75,-50.78125,-51.26953125,-28.80859375,-20.5078125
9,1746313007593.6562,-32.71484375,-48.828125,-21.484375,-24.90234375
10,1746313007597.5625,7.8125,-22.4609375,-11.23046875,-45.41015625
11,1746313007601.4688,0.48828125,-18.5546875,-44.43359375,-50.78125
0,1746313007605.375,-30.2734375,-46.875,-38.57421875,-16.6015625
1,1746313007609.2812,-49.31640625,-63.4765625,-3.41796875,6.8359375
2,1746313007613.1875,-21.97265625,-51.26953125,3.90625,41.9921875
3,1746313007617.0938,-25.390625,-41.015625,-26.85546875,-28.3203125
4,1746313007621,-53.22265625,-6.8359375,-75.1953125,-56.15234375
5,1746313007624.9062,-61.03515625,1.46484375,-70.3125,-22.4609375
6,1746313007628.8125,-18.5546875,-11.71875,-22.94921875,-42.96875
7,1746313007632.7188,-13.18359375,-41.9921875,-33.203125,-55.17578125
8,1746313007636.625,-40.52734375,-50.78125,-46.875,-83.0078125
9,1746313007640.5312,34.1796875,-39.55078125,-33.69140625,-20.99609375
10,1746313007644.4375,-44.43359375,-32.71484375,-33.69140625,10.25390625
11,1746313007648.3438,-89.35546875,-54.6875,-11.71875,-14.6484375
0,1746313007652.25,-0.48828125,-73.2421875,-41.015625,-32.71484375
1,1746313007656.1562,-26.85546875,-41.015625,-47.36328125,15.625
2,1746313007660.0625,-40.52734375,-29.78515625,-7.8125,61.03515625
3,1746313007663.9688,-62.98828125,-37.109375,-38.57421875,33.203125
4,1746313007667.875,-44.921875,-7.8125,-41.015625,57.6171875
5,1746313007671.7812,-13.18359375,-4.39453125,-41.50390625,89.84375
6,1746313007675.6875,-56.15234375,-28.3203125,-47.36328125,106.93359375
7,1746313007679.5938,-67.87109375,-44.43359375,-20.99609375,88.37890625
8,1746313007683.5,-62.5,-63.96484375,-29.78515625,98.14453125
9,1746313007687.4062,-49.31640625,-42.48046875,-37.59765625,126.46484375
10,1746313007691.3125,-10.7421875,-22.94921875,-54.6875,111.81640625
11,1746313007695.2188,-3.90625,-45.8984375,-68.359375,96.19140625
0,1746313007699.125,-64.94140625,-64.94140625,-34.66796875,78.125
1,1746313007703.0312,-62.01171875,-70.3125,-29.296875,52.734375
2,1746313007706.9375,-64.453125,-67.3828125,-33.203125,48.33984375
3,1746313007710.8438,-67.87109375,-36.62109375,-16.11328125,59.5703125
4,1746313007714.75,-50.29296875,-17.08984375,-30.2734375,46.875
5,1746313007718.6562,-50.29296875,-30.76171875,-52.24609375,24.4140625
6,1746313007722.5625,-4.39453125,-22.94921875,-52.24609375,68.359375
7,1746313007726.4688,-14.16015625,-40.52734375,-59.08203125,48.828125
8,1746313007730.375,-62.98828125,-60.546875,-37.59765625,4.8828125
9,1746313007734.2812,2.44140625,-30.76171875,-44.921875,40.52734375
10,1746313007738.1875,-13.18359375,-46.875,-69.3359375,36.1328125
11,1746313007742.0938,-100.09765625,-79.1015625,-30.76171875,-10.7421875
0,1746313007746,-97.65625,-50.29296875,-8.30078125,-24.90234375
1,1746313007749.9062,-54.19921875,-36.62109375,-42.96875,-2.44140625
2,1746313007753.8125,-28.3203125,-26.85546875,-50.29296875,-10.25390625
3,1746313007757.7188,-55.6640625,-17.578125,-28.3203125,-19.04296875
4,1746313007761.625,-32.2265625,-56.15234375,-23.92578125,-14.6484375
5,1746313007765.5312,-45.41015625,-46.38671875,-32.2265625,-5.859375
6,1746313007769.4375,-81.0546875,-0.9765625,-18.5546875,30.2734375
7,1746313007773.3438,-25.87890625,-46.875,-31.25,24.4140625
8,1746313007777.25,-41.50390625,-51.26953125,-73.2421875,-16.6015625
9,1746313007781.1562,-78.125,-15.13671875,-62.98828125,-39.0625
10,1746313007785.0625,-57.6171875,-29.78515625,-49.31640625,-37.109375
11,1746313007788.9688,-56.640625,-40.0390625,-39.0625,-18.5546875
0,1746313007792.875,-59.08203125,-39.55078125,-31.25,-27.83203125
1,1746313007796.7812,-60.05859375,-37.109375,-25.390625,-50.29296875
2,1746313007800.6875,-88.8671875,-28.80859375,-30.76171875,-69.82421875
3,1746313007804.5938,-43.45703125,-19.53125,-43.45703125,-40.52734375
4,1746313007808.5,11.71875,-40.52734375,-35.64453125,-16.11328125
5,1746313007812.4062,-20.99609375,-57.12890625,-40.52734375,-25.87890625
6,1746313007816.3125,-35.15625,-42.48046875,-55.6640625,-18.06640625
7,1746313007820.2188,-25.390625,-43.45703125,-64.453125,-10.7421875
8,1746313007824.125,-37.109375,-37.109375,-71.77734375,-19.04296875
9,1746313007828.0312,-64.94140625,-23.92578125,-39.55078125,-40.0390625
10,1746313007831.9375,-54.19921875,-33.69140625,-19.53125,-51.7578125
11,1746313007835.8438,-43.9453125,-30.2734375,-33.69140625,-53.7109375
0,1746313007839.75,-41.9921875,-18.5546875,-29.296875,-33.203125
1,1746313007843.6562,-17.578125,-25.390625,-6.34765625,17.578125
2,1746313007847.5625,-18.5546875,-15.625,5.859375,8.30078125
3,1746313007851.4688,-30.2734375,-8.7890625,-25.390625,-33.203125
4,1746313007855.375,-41.50390625,-20.5078125,-26.3671875,-21.97265625
5,1746313007859.2812,-21.484375,-15.625,-7.8125,-2.44140625
6,1746313007863.1875,11.23046875,-34.1796875,-17.08984375,-15.625
7,1746313007867.0938,-13.671875,-54.19921875,-50.78125,-34.66796875
8,1746313007871,0.48828125,-21.484375,-78.61328125,2.44140625
9,1746313007874.9062,17.08984375,-2.9296875,-46.38671875,22.4609375
10,1746313007878.8125,-51.26953125,-10.25390625,-35.64453125,-35.64453125
11,1746313007882.7188,-63.4765625,-24.90234375,-10.7421875,-39.55078125
0,1746313007886.625,-36.1328125,-63.4765625,-7.32421875,-38.0859375
1,1746313007890.5312,-39.0625,-59.5703125,-25.87890625,-42.48046875
2,1746313007894.4375,-2.44140625,3.90625,-4.39453125,-21.484375
3,1746313007898.3438,7.8125,8.7890625,-8.30078125,-24.4140625
4,1746313007902.25,10.25390625,-20.99609375,-24.4140625,-9.27734375
5,1746313007906.1562,15.625,-21.97265625,-52.24609375,5.37109375
6,1746313007910.0625,-19.53125,-36.62109375,-53.22265625,-28.80859375
7,1746313007913.9688,-28.80859375,-29.296875,-23.4375,-10.7421875
8,1746313007917.875,-40.52734375,-18.06640625,-18.5546875,-6.8359375
9,1746313007921.7812,-19.53125,-19.04296875,-33.203125,-10.25390625
10,1746313007925.6875,1.953125,-39.0625,-49.31640625,0.9765625
11,1746313007929.5938,-24.90234375,-55.6640625,-45.41015625,-5.859375
0,1746313007933.5,-27.83203125,-34.1796875,-45.8984375,-15.625
1,1746313007937.4062,-38.57421875,-5.859375,-24.90234375,-31.73828125
2,1746313007941.3125,-32.71484375,-12.20703125,6.34765625,-35.64453125
3,1746313007945.2188,-31.25,-15.13671875,-11.71875,-29.296875
4,1746313007949.125,-38.57421875,5.37109375,-43.45703125,-2.9296875
5,1746313007953.0312,-42.48046875,-38.0859375,-66.89453125,3.41796875
6,1746313007956.9375,-21.97265625,-70.3125,-43.45703125,0.9765625
7,1746313007960.8438,-15.625,-25.390625,-7.8125,-29.78515625
8,1746313007964.75,-19.53125,-19.53125,-11.23046875,-42.96875
9,1746313007968.6562,-17.578125,-41.9921875,-40.0390625,-21.97265625
10,1746313007972.5625,-33.69140625,-41.50390625,-68.84765625,-17.578125
11,1746313007976.4688,-12.20703125,-46.875,-54.6875,-4.8828125
0,1746313007980.375,4.8828125,-41.015625,-37.59765625,-5.37109375
1,1746313007984.2812,-38.0859375,-22.4609375,-14.6484375,-35.15625
2,1746313007988.1875,-67.3828125,-27.83203125,-16.6015625,-27.83203125
3,1746313007992.0938,-74.70703125,-53.7109375,-57.6171875,-17.578125
4,1746313007996,-59.5703125,-35.15625,-53.7109375,-32.2265625
5,1746313007999.9062,-62.01171875,-9.27734375,-40.0390625,-30.76171875
6,1746313008003.8125,-23.4375,-27.34375,-54.6875,-32.2265625
7,1746313008007.7188,8.30078125,-51.7578125,-24.90234375,-6.8359375
8,1746313008011.625,-33.69140625,-37.59765625,-17.08984375,9.27734375
9,1746313008015.5312,-40.0390625,-11.71875,-41.9921875,-22.94921875
10,1746313008019.4375,-12.20703125,-58.10546875,-6.34765625,2.44140625
11,1746313008023.3438,-20.01953125,-62.98828125,-11.71875,-30.76171875
0,1746313008027.25,-28.80859375,-30.2734375,-23.92578125,-40.52734375
1,1746313008031.1562,-27.83203125,-29.296875,-18.06640625,-24.90234375
2,1746313008035.0625,-31.73828125,-12.6953125,-43.9453125,-52.24609375
3,1746313008038.9688,0.48828125,-3.90625,-42.96875,-30.2734375
4,1746313008042.875,20.99609375,-23.92578125,-28.80859375,-25.390625
5,1746313008046.7812,19.53125,-40.0390625,-33.203125,-19.53125
6,1746313008050.6875,-20.99609375,-47.36328125,-66.40625,-17.08984375
7,1746313008054.5938,-72.265625,-53.7109375,-47.36328125,-12.20703125
8,1746313008058.5,-37.59765625,-46.875,-14.6484375,37.109375
9,1746313008062.4062,-11.71875,-48.828125,-48.828125,28.3203125
10,1746313008066.3125,-54.19921875,-25.87890625,-64.94140625,-39.55078125
11,1746313008070.2188,-41.50390625,-7.32421875,-37.109375,-21.97265625
0,1746313008074.125,-47.8515625,-15.625,-42.48046875,-28.3203125
1,1746313008078.0312,-76.171875,-17.578125,-25.390625,-76.171875
2,1746313008081.9375,-76.171875,-24.90234375,-13.18359375,-59.08203125
3,1746313008085.8438,-51.7578125,-37.109375,-22.4609375,-43.9453125
4,1746313008089.75,-33.69140625,-64.453125,-3.41796875,-53.22265625
5,1746313008093.6562,-7.8125,-46.875,-27.83203125,-28.80859375
6,1746313008097.5625,-25.390625,-31.73828125,-39.55078125,8.7890625
7,1746313008101.4688,-46.38671875,-50.29296875,-23.4375,-3.90625
8,1746313008105.375,-15.13671875,-48.828125,-33.69140625,1.953125
9,1746313008109.2812,-8.7890625,-25.390625,-40.0390625,-21.484375
10,1746313008113.1875,-19.04296875,-12.6953125,-22.94921875,-26.3671875
11,1746313008117.0938,-31.73828125,-24.90234375,-33.69140625,-8.30078125
0,1746313008121,-23.92578125,-41.50390625,-50.78125,20.01953125
1,1746313008124.9062,-22.94921875,-43.45703125,-42.48046875,51.7578125
2,1746313008128.8125,1.46484375,-12.20703125,-26.85546875,56.640625
3,1746313008132.7188,-3.41796875,-25.390625,-29.78515625,62.5
4,1746313008136.625,4.39453125,-20.99609375,-50.29296875,80.56640625
5,1746313008140.5312,-0.9765625,-15.625,-38.57421875,95.21484375
6,1746313008144.4375,-74.70703125,-50.78125,-28.3203125,65.4296875
7,1746313008148.3438,-66.89453125,-58.10546875,-34.66796875,46.38671875
8,1746313008152.25,-36.1328125,-49.8046875,-43.45703125,36.62109375
9,1746313008156.1562,-33.69140625,-40.52734375,-20.5078125,38.57421875
10,1746313008160.0625,-14.6484375,-59.5703125,-12.20703125,36.1328125
11,1746313008163.9688,-55.6640625,-50.29296875,-32.2265625,17.578125
0,1746313008167.875,-83.984375,-11.71875,-24.90234375,21.484375
1,1746313008171.7812,-44.921875,0,-23.4375,12.20703125
2,1746313008175.6875,-19.04296875,-8.30078125,-29.78515625,7.8125
3,1746313008179.5938,-5.859375,-46.875,-30.76171875,25.390625
4,1746313008183.5,-33.69140625,-57.12890625,-51.7578125,32.2265625
5,1746313008187.4062,-34.66796875,-16.6015625,-71.2890625,14.16015625
6,1746313008191.3125,-15.13671875,-13.18359375,-53.7109375,20.01953125
7,1746313008195.2188,-5.37109375,-13.18359375,-34.66796875,12.20703125
8,1746313008199.125,-3.41796875,-30.2734375,-33.203125,-18.5546875
9,1746313008203.0312,-16.6015625,-31.73828125,-36.1328125,-6.8359375
10,1746313008206.9375,-23.4375,-15.13671875,-41.015625,-2.9296875
11,1746313008210.8438,-11.23046875,-22.4609375,-51.7578125,-26.3671875
0,1746313008214.75,-31.25,-32.71484375,-60.546875,-40.52734375
1,1746313008218.6562,-35.15625,-33.203125,-61.5234375,-19.53125
2,1746313008222.5625,-7.32421875,-12.20703125,-65.4296875,-3.41796875
3,1746313008226.4688,-18.06640625,-23.92578125,-65.91796875,-29.296875
4,1746313008230.375,-50.29296875,-59.5703125,-63.96484375,-21.97265625
5,1746313008234.2812,-58.10546875,-57.6171875,-37.59765625,5.859375
6,1746313008238.1875,-50.29296875,-19.04296875,-7.32421875,13.18359375
7,1746313008242.0938,-29.78515625,22.4609375,-11.71875,10.25390625
8,1746313008246,-30.2734375,7.32421875,-20.01953125,-16.11328125
9,1746313008249.9062,-31.73828125,-8.7890625,-20.5078125,-37.109375
10,1746313008253.8125,-23.92578125,-18.06640625,-47.36328125,-35.64453125
11,1746313008257.7188,-20.99609375,-36.1328125,-60.546875,-5.859375
0,1746313008261.625,-36.1328125,-29.296875,-43.9453125,-18.06640625
1,1746313008265.5312,-25.390625,-15.13671875,-25.390625,-35.64453125
2,1746313008269.4375,8.7890625,-10.25390625,-31.25,-15.13671875
3,1746313008273.3438,-18.5546875,-36.1328125,-57.6171875,2.9296875
4,1746313008277.25,-18.5546875,-49.31640625,-34.66796875,0
5,1746313008281.1562,-22.94921875,-20.99609375,-19.04296875,-20.99609375
6,1746313008285.0625,-28.3203125,-7.8125,-25.87890625,-11.23046875
7,1746313008288.9688,-28.3203125,-40.0390625,-28.3203125,-4.39453125
8,1746313008292.875,-32.2265625,-50.29296875,-24.4140625,3.90625
9,1746313008296.7812,-25.87890625,-4.39453125,-40.0390625,22.4609375
10,1746313008300.6875,-10.7421875,14.6484375,-51.7578125,18.5546875
11,1746313008304.5938,0.9765625,-29.296875,-35.64453125,-5.859375
0,1746313008308.5,-29.296875,-58.10546875,-32.2265625,-19.04296875
1,1746313008312.4062,-50.29296875,-36.1328125,-30.2734375,-26.3671875
2,1746313008316.3125,-53.22265625,-19.04296875,-40.0390625,-31.25
3,1746313008320.2188,-43.9453125,-27.34375,-41.9921875,-35.15625
4,1746313008324.125,-40.0390625,-33.203125,-26.85546875,-36.1328125
5,1746313008328.0312,-44.921875,-22.4609375,-41.015625,-32.71484375
6,1746313008331.9375,-48.33984375,-12.20703125,-54.19921875,-44.921875
7,1746313008335.8438,-55.6640625,-18.5546875,-45.8984375,-44.921875
8,1746313008339.75,-42.48046875,-24.90234375,-28.3203125,-33.69140625
9,1746313008343.6562,-20.5078125,-15.625,-15.625,-45.8984375
10,1746313008347.5625,-44.921875,-27.83203125,-25.390625,-58.10546875
11,1746313008351.4688,-67.3828125,-47.36328125,-45.8984375,-63.96484375
0,1746313008355.375,-41.50390625,-26.85546875,-47.36328125,-67.3828125
1,1746313008359.2812,-20.99609375,-33.203125,-38.0859375,-49.31640625
2,1746313008363.1875,-53.7109375,-39.55078125,-33.69140625,-61.5234375
3,1746313008367.0938,-89.35546875,-20.01953125,-27.34375,-78.125
4,1746313008371,-83.0078125,-21.97265625,-23.92578125,-51.26953125
5,1746313008374.9062,-76.66015625,-20.5078125,-27.34375,-72.265625
6,1746313008378.8125,-80.56640625,-27.83203125,-39.55078125,-84.47265625
7,1746313008382.7188,-89.35546875,-54.19921875,-33.69140625,-88.37890625
8,1746313008386.625,-106.93359375,-55.6640625,-20.5078125,-122.55859375
9,1746313008390.5312,-113.28125,-41.015625,-21.484375,-103.515625
10,1746313008394.4375,-100.5859375,-43.45703125,-7.8125,-108.88671875
11,1746313008398.3438,-83.984375,-48.33984375,3.41796875,-155.2734375
0,1746313008402.25,-107.421875,-50.78125,3.90625,-177.24609375
1,1746313008406.1562,-134.27734375,-41.9921875,-17.08984375,-191.89453125
2,1746313008410.0625,-129.8828125,-50.29296875,-25.390625,-174.8046875
3,1746313008413.9688,-134.27734375,-62.5,-4.39453125,-173.828125
4,1746313008417.875,-125,-55.6640625,10.7421875,-203.61328125
5,1746313008421.7812,-114.74609375,-58.59375,9.27734375,-208.984375
6,1746313008425.6875,-112.3046875,-60.546875,-16.11328125,-226.07421875
7,1746313008429.5938,-102.5390625,-47.8515625,-15.13671875,-230.95703125
8,1746313008433.5,-107.91015625,-41.9921875,-7.8125,-208.49609375
9,1746313008437.4062,-95.21484375,-49.8046875,-14.6484375,-206.54296875
10,1746313008441.3125,-71.77734375,-45.41015625,-17.578125,-196.77734375
11,1746313008445.2188,-83.0078125,-38.57421875,-14.16015625,-182.12890625
0,1746313008449.125,-98.6328125,-51.7578125,-3.41796875,-187.98828125
1,1746313008453.0312,-100.5859375,-64.94140625,-6.34765625,-157.71484375
2,1746313008456.9375,-102.05078125,-62.01171875,-15.13671875,-137.6953125
3,1746313008460.8438,-62.01171875,-55.6640625,-15.13671875,-150.390625
4,1746313008464.75,-68.84765625,-49.8046875,-16.11328125,-124.0234375
5,1746313008468.6562,-106.93359375,-51.26953125,-15.13671875,-125.48828125
6,1746313008472.5625,-54.6875,-47.36328125,-16.6015625,-114.74609375
7,1746313008476.4688,-50.78125,-48.828125,-20.5078125,-92.28515625
8,1746313008480.375,-93.75,-60.546875,-17.08984375,-88.37890625
9,1746313008484.2812,-60.05859375,-52.734375,-15.13671875,-78.61328125
10,1746313008488.1875,-48.828125,-50.78125,-20.01953125,-94.23828125
11,1746313008492.0938,-36.1328125,-50.78125,-22.4609375,-76.66015625
0,1746313008496,-26.3671875,-46.38671875,-18.5546875,-62.98828125
1,1746313008499.9062,-61.03515625,-43.9453125,-22.94921875,-19.04296875
2,1746313008503.8125,-47.8515625,-42.48046875,-29.296875,-7.8125
3,1746313008507.7188,-21.97265625,-47.36328125,-33.203125,-41.50390625
4,1746313008511.625,-8.30078125,-49.31640625,-26.3671875,-33.69140625
5,1746313008515.5312,-19.04296875,-41.50390625,-30.76171875,-23.4375
6,1746313008519.4375,-4.39453125,-40.52734375,-40.52734375,-6.8359375
7,1746313008523.3438,28.80859375,-44.921875,-41.015625,5.37109375
8,1746313008527.25,22.94921875,-48.33984375,-41.015625,5.859375
9,1746313008531.1562,29.78515625,-49.31640625,-44.43359375,12.20703125
10,1746313008535.0625,39.55078125,-37.109375,-47.36328125,51.26953125
11,1746313008538.9688,44.43359375,-39.0625,-46.38671875,55.6640625
0,1746313008542.875,62.5,-44.43359375,-46.38671875,39.55078125
1,1746313008546.7812,43.45703125,-40.52734375,-43.45703125,23.92578125
2,1746313008550.6875,47.36328125,-37.109375,-46.38671875,53.7109375
3,1746313008554.5938,63.96484375,-31.25,-50.78125,80.56640625
4,1746313008558.5,62.98828125,-35.64453125,-47.36328125,45.8984375
5,1746313008562.4062,59.08203125,-35.64453125,-49.8046875,67.3828125
6,1746313008566.3125,75.68359375,-31.73828125,-56.640625,77.63671875
7,1746313008570.2188,85.9375,-28.80859375,-59.5703125,66.40625
8,1746313008574.125,74.21875,-28.80859375,-56.15234375,77.63671875
9,1746313008578.0312,61.03515625,-24.90234375,-54.19921875,69.82421875
10,1746313008581.9375,75.1953125,-8.30078125,-62.5,52.734375
11,1746313008585.8438,63.96484375,-5.37109375,-70.80078125,58.59375
0,1746313008589.75,43.45703125,-9.765625,-74.21875,64.453125
1,1746313008593.6562,38.57421875,-23.92578125,-84.9609375,63.4765625
2,1746313008597.5625,-6.34765625,-64.453125,-121.58203125,23.4375
3,1746313008601.4688,-19.53125,-104.00390625,-159.1796875,-28.80859375
4,1746313008605.375,-11.23046875,-123.046875,-173.33984375,-55.17578125
5,1746313008609.2812,-21.484375,-138.671875,-188.96484375,-63.96484375
6,1746313008613.1875,-16.11328125,-152.34375,-205.078125,-67.3828125
7,1746313008617.0938,-14.16015625,-162.109375,-212.40234375,-81.0546875
8,1746313008621,-44.921875,-169.43359375,-210.44921875,-95.21484375
9,1746313008624.9062,-63.4765625,-166.50390625,-204.58984375,-99.609375
10,1746313008628.8125,-34.66796875,-158.203125,-196.2890625,-79.58984375
11,1746313008632.7188,-37.59765625,-145.01953125,-185.546875,-73.2421875
0,1746313008636.625,-34.1796875,-126.46484375,-178.22265625,-97.65625
1,1746313008640.5312,-24.4140625,-114.74609375,-171.38671875,-104.4921875
2,1746313008644.4375,-34.1796875,-107.91015625,-167.48046875,-109.375
3,1746313008648.3438,-23.4375,-105.46875,-158.69140625,-97.65625
4,1746313008652.25,-18.5546875,-98.14453125,-145.01953125,-87.890625
5,1746313008656.1562,-24.90234375,-86.9140625,-138.18359375,-90.33203125
6,1746313008660.0625,-18.06640625,-81.0546875,-132.32421875,-80.56640625
7,1746313008663.9688,-11.23046875,-87.890625,-122.55859375,-91.796875
8,1746313008667.875,-20.5078125,-105.95703125,-115.72265625,-77.63671875
9,1746313008671.7812,-34.66796875,-96.19140625,-105.95703125,-72.265625
10,1746313008675.6875,-33.203125,-64.94140625,-110.3515625,-104.00390625
11,1746313008679.5938,-36.62109375,-41.50390625,-107.91015625,-119.140625
0,1746313008683.5,-45.41015625,-33.69140625,-92.28515625,-111.81640625
1,1746313008687.4062,-43.45703125,-41.015625,-86.42578125,-97.16796875
2,1746313008691.3125,-52.24609375,-43.45703125,-84.9609375,-104.98046875
3,1746313008695.2188,-75.68359375,-41.015625,-85.9375,-109.86328125
4,1746313008699.125,-74.21875,-36.62109375,-85.44921875,-112.3046875
5,1746313008703.0312,-67.3828125,-24.90234375,-81.0546875,-104.98046875
6,1746313008706.9375,-63.96484375,-27.34375,-79.58984375,-82.51953125
7,1746313008710.8438,-62.98828125,-35.15625,-70.80078125,-99.609375
8,1746313008714.75,-67.87109375,-40.0390625,-63.96484375,-132.32421875
9,1746313008718.6562,-79.58984375,-45.8984375,-71.77734375,-131.34765625
10,1746313008722.5625,-63.4765625,-41.015625,-72.75390625,-101.5625
11,1746313008726.4688,-62.98828125,-42.48046875,-66.89453125,-101.07421875
0,1746313008730.375,-88.37890625,-47.8515625,-69.82421875,-146.97265625
1,1746313008734.2812,-61.5234375,-45.41015625,-78.125,-163.0859375
2,1746313008738.1875,-46.38671875,-59.5703125,-83.49609375,-94.23828125
3,1746313008742.0938,-91.30859375,-63.4765625,-79.1015625,-128.41796875
4,1746313008746,-112.3046875,-60.05859375,-78.125,-218.75
5,1746313008749.9062,-98.6328125,-61.03515625,-88.37890625,-194.3359375
6,1746313008753.8125,-92.28515625,-53.7109375,-91.30859375,-168.9453125
7,1746313008757.7188,-103.515625,-56.15234375,-88.8671875,-163.0859375
8,1746313008761.625,-93.75,-62.98828125,-88.37890625,-176.26953125
9,1746313008765.5312,-88.8671875,-69.82421875,-84.47265625,-165.52734375
10,1746313008769.4375,-83.0078125,-73.73046875,-87.40234375,-142.578125
11,1746313008773.3438,-79.1015625,-70.80078125,-84.47265625,-165.52734375
0,1746313008777.25,-75.1953125,-62.98828125,-85.9375,-176.7578125
1,1746313008781.1562,-78.61328125,-65.91796875,-95.21484375,-156.25
2,1746313008785.0625,-81.54296875,-69.82421875,-92.7734375,-132.8125
3,1746313008788.9688,-86.42578125,-60.05859375,-87.40234375,-118.1640625
4,1746313008792.875,-67.3828125,-50.78125,-101.07421875,-126.953125
5,1746313008796.7812,-59.08203125,-55.17578125,-97.16796875,-145.01953125
6,1746313008800.6875,-89.84375,-63.96484375,-64.94140625,-143.06640625
7,1746313008804.5938,-79.1015625,-50.78125,-56.640625,-92.7734375
8,1746313008808.5,-74.21875,-45.41015625,-62.98828125,-87.40234375
9,1746313008812.4062,-71.2890625,-45.8984375,-66.40625,-107.421875
10,1746313008816.3125,-64.94140625,-43.45703125,-68.359375,-104.00390625
11,1746313008820.2188,-66.40625,-41.015625,-62.98828125,-82.51953125
0,1746313008824.125,-75.1953125,-34.66796875,-73.73046875,-60.546875
1,1746313008828.0312,-75.68359375,-39.0625,-85.44921875,-68.359375
2,1746313008831.9375,-66.40625,-48.828125,-78.61328125,-88.8671875
3,1746313008835.8438,-80.56640625,-61.03515625,-77.63671875,-95.21484375
4,1746313008839.75,-98.14453125,-64.453125,-76.66015625,-103.515625
5,1746313008843.6562,-108.88671875,-51.26953125,-75.68359375,-95.703125
6,1746313008847.5625,-76.66015625,-45.41015625,-73.73046875,-84.47265625
7,1746313008851.4688,-62.98828125,-44.921875,-69.82421875,-81.54296875
8,1746313008855.375,-81.0546875,-44.921875,-70.80078125,-84.9609375
9,1746313008859.2812,-64.94140625,-48.33984375,-74.21875,-91.796875
10,1746313008863.1875,-71.77734375,-48.828125,-67.87109375,-78.125
11,1746313008867.0938,-74.21875,-46.38671875,-60.05859375,-65.91796875
0,1746313008871,-56.15234375,-46.38671875,-70.3125,-68.359375
1,1746313008874.9062,-58.10546875,-42.96875,-82.51953125,-58.59375
2,1746313008878.8125,-57.12890625,-41.50390625,-72.265625,-57.12890625
3,1746313008882.7188,-48.33984375,-42.96875,-52.24609375,-65.4296875
4,1746313008886.625,-49.31640625,-46.38671875,-52.24609375,-62.5
5,1746313008890.5312,-41.9921875,-48.33984375,-62.5,-60.05859375
6,1746313008894.4375,-43.45703125,-51.26953125,-65.4296875,-54.6875
7,1746313008898.3438,-59.5703125,-61.03515625,-56.15234375,-57.12890625
8,1746313008902.25,-51.7578125,-62.5,-49.8046875,-58.10546875
9,1746313008906.1562,-31.25,-56.640625,-50.29296875,-53.22265625
10,1746313008910.0625,-49.8046875,-49.8046875,-55.6640625,-62.98828125
11,1746313008913.9688,-57.6171875,-49.8046875,-55.6640625,-50.29296875
0,1746313008917.875,-39.55078125,-52.24609375,-46.875,-38.57421875
1,1746313008921.7812,-38.57421875,-46.38671875,-52.24609375,-56.640625
2,1746313008925.6875,-46.38671875,-42.96875,-61.5234375,-45.41015625
3,1746313008929.5938,-52.24609375,-47.8515625,-59.08203125,-48.33984375
4,1746313008933.5,-47.36328125,-52.24609375,-59.5703125,-42.48046875
5,1746313008937.4062,-47.36328125,-51.26953125,-61.5234375,-25.390625
6,1746313008941.3125,-46.875,-50.29296875,-53.7109375,-51.7578125
7,1746313008945.2188,-52.24609375,-45.41015625,-49.8046875,-66.89453125
8,1746313008949.125,-60.546875,-42.96875,-50.78125,-42.96875
9,1746313008953.0312,-43.9453125,-48.828125,-46.38671875,-34.1796875
10,1746313008956.9375,-46.875,-52.24609375,-43.45703125,-53.22265625
11,1746313008960.8438,-50.78125,-49.8046875,-48.33984375,-47.36328125
0,1746313008964.75,-41.50390625,-44.43359375,-52.734375,-35.15625
1,1746313008968.6562,-52.734375,-42.96875,-49.8046875,-67.3828125
2,1746313008972.5625,-39.55078125,-39.0625,-44.43359375,-59.5703125
3,1746313008976.4688,-15.13671875,-36.1328125,-40.52734375,-52.734375
4,1746313008980.375,-31.25,-41.9921875,-41.015625,-50.29296875
5,1746313008984.2812,-42.48046875,-40.52734375,-44.43359375,-55.6640625
6,1746313008988.1875,-28.80859375,-23.4375,-40.0390625,-50.29296875
7,1746313008992.0938,-49.31640625,-15.625,-41.9921875,-37.59765625
8,1746313008996,-63.96484375,-16.6015625,-47.36328125,-45.8984375
9,1746313008999.9062,-35.64453125,-24.4140625,-38.57421875,-42.48046875
10,1746313009003.8125,-39.55078125,-29.78515625,-39.0625,-63.96484375
11,1746313009007.7188,-41.015625,-27.34375,-39.55078125,-83.49609375
0,1746313009011.625,-37.59765625,-25.390625,-33.203125,-79.1015625
1,1746313009015.5312,-45.8984375,-28.3203125,-35.64453125,-56.640625
2,1746313009019.4375,-52.734375,-29.296875,-37.109375,-53.22265625
3,1746313009023.3438,-63.96484375,-30.2734375,-37.109375,-57.6171875
4,1746313009027.25,-55.17578125,-31.73828125,-37.59765625,-61.5234375
5,1746313009031.1562,-59.08203125,-26.3671875,-41.015625,-74.70703125
6,1746313009035.0625,-66.89453125,-24.90234375,-41.50390625,-68.84765625
7,1746313009038.9688,-25.390625,-31.25,-40.0390625,-57.12890625
8,1746313009042.875,-27.34375,-36.1328125,-47.36328125,-40.52734375
9,1746313009046.7812,-50.78125,-30.76171875,-44.43359375,-54.19921875
10,1746313009050.6875,-26.3671875,-33.69140625,-36.62109375,-71.2890625
11,1746313009054.5938,-15.13671875,-35.64453125,-35.15625,-47.36328125
0,1746313009058.5,-40.0390625,-27.34375,-35.64453125,-39.0625
1,1746313009062.4062,-44.921875,-24.4140625,-35.64453125,-26.85546875
2,1746313009066.3125,-44.921875,-27.83203125,-35.64453125,-41.015625
3,1746313009070.2188,-32.2265625,-24.90234375,-33.69140625,-82.51953125
4,1746313009074.125,-51.7578125,-27.83203125,-32.2265625,-70.80078125
5,1746313009078.0312,-47.36328125,-38.0859375,-29.296875,-39.55078125
6,1746313009081.9375,-33.203125,-46.38671875,-27.83203125,-34.1796875
7,1746313009085.8438,-26.3671875,-41.9921875,-33.203125,-58.10546875
8,1746313009089.75,-16.6015625,-37.59765625,-37.59765625,-56.640625
9,1746313009093.6562,-24.4140625,-41.9921875,-37.109375,-43.45703125
10,1746313009097.5625,-11.71875,-44.43359375,-31.25,-48.828125
11,1746313009101.4688,-42.48046875,-46.38671875,-26.85546875,-52.734375
0,1746313009105.375,-43.9453125,-45.41015625,-29.296875,-41.50390625
1,1746313009109.2812,-31.25,-40.52734375,-37.109375,-23.92578125
2,1746313009113.1875,-41.015625,-41.50390625,-36.62109375,-35.15625
3,1746313009117.0938,-20.5078125,-39.0625,-30.2734375,-48.33984375
4,1746313009121,-34.1796875,-40.0390625,-27.83203125,-20.01953125
5,1746313009124.9062,-51.26953125,-40.0390625,-25.87890625,-24.4140625
6,1746313009128.8125,-20.5078125,-38.0859375,-31.73828125,-41.50390625
7,1746313009132.7188,-0.48828125,-40.0390625,-32.2265625,-46.875
8,1746313009136.625,-22.4609375,-36.1328125,-28.3203125,-39.0625
9,1746313009140.5312,-43.45703125,-35.64453125,-30.76171875,-20.5078125
10,1746313009144.4375,-34.1796875,-36.62109375,-36.62109375,-39.55078125
11,1746313009148.3438,-28.3203125,-40.0390625,-34.66796875,-64.453125
0,1746313009152.25,-9.765625,-43.45703125,-28.3203125,-46.38671875
1,1746313009156.1562,-3.90625,-38.57421875,-24.4140625,-24.4140625
2,1746313009160.0625,-22.94921875,-35.15625,-25.87890625,-24.4140625
3,1746313009163.9688,-26.85546875,-36.62109375,-24.90234375,-20.99609375
4,1746313009167.875,-4.8828125,-32.71484375,-26.3671875,-30.2734375
5,1746313009171.7812,-4.8828125,-25.390625,-29.296875,-39.0625
6,1746313009175.6875,-8.30078125,-30.2734375,-20.5078125,-11.23046875
7,1746313009179.5938,-16.11328125,-35.64453125,-8.7890625,-11.23046875
8,1746313009183.5,-39.55078125,-30.2734375,-14.16015625,-37.59765625
9,1746313009187.4062,-7.8125,-20.99609375,-18.06640625,-20.01953125
10,1746313009191.3125,2.44140625,-25.390625,-14.6484375,0.9765625
11,1746313009195.2188,-20.5078125,-33.69140625,-16.6015625,-33.203125
0,1746313009199.125,-21.484375,-31.73828125,-17.08984375,-48.828125
1,1746313009203.0312,-32.2265625,-27.34375,-19.53125,-19.04296875
2,1746313009206.9375,-9.765625,-27.34375,-16.11328125,-11.23046875
3,1746313009210.8438,-17.578125,-28.3203125,-22.4609375,-34.1796875
4,1746313009214.75,-24.4140625,-24.4140625,-25.87890625,-50.78125
5,1746313009218.6562,-31.73828125,-25.390625,-15.625,-51.26953125
6,1746313009222.5625,-40.0390625,-29.296875,-24.90234375,-41.015625
7,1746313009226.4688,-18.06640625,-33.203125,-28.80859375,-31.25
8,1746313009230.375,-12.20703125,-29.78515625,-25.390625,-49.31640625
9,1746313009234.2812,13.18359375,-22.4609375,-24.90234375,-65.91796875
10,1746313009238.1875,-0.9765625,-30.76171875,-18.5546875,-84.47265625
11,1746313009242.0938,-38.0859375,-34.66796875,-21.484375,-74.21875
0,1746313009246,-27.83203125,-30.76171875,-29.78515625,-33.203125
1,1746313009249.9062,-24.90234375,-32.71484375,-29.296875,-27.83203125
2,1746313009253.8125,-27.34375,-28.80859375,-19.53125,-40.0390625
3,1746313009257.7188,-25.87890625,-29.296875,-20.5078125,-39.0625
4,1746313009261.625,-27.83203125,-31.25,-33.203125,-17.08984375
5,1746313009265.5312,-45.41015625,-31.25,-34.66796875,-31.73828125
6,1746313009269.4375,-16.11328125,-31.73828125,-29.296875,-29.78515625
7,1746313009273.3438,4.8828125,-26.85546875,-22.94921875,-18.5546875
8,1746313009277.25,-27.34375,-24.90234375,-14.6484375,-34.66796875
9,1746313009281.1562,-24.4140625,-30.2734375,-11.71875,-52.24609375
10,1746313009285.0625,-17.08984375,-30.76171875,-15.625,-47.36328125
11,1746313009288.9688,14.16015625,-29.296875,-20.01953125,-29.78515625
0,1746313009292.875,-23.92578125,-31.25,-22.4609375,-30.76171875
1,1746313009296.7812,-59.5703125,-26.85546875,-19.04296875,-36.1328125
2,1746313009300.6875,-20.99609375,-25.390625,-15.625,-16.6015625
3,1746313009304.5938,-7.8125,-23.4375,-18.06640625,-20.99609375
4,1746313009308.5,-15.13671875,-21.484375,-19.04296875,-54.6875
5,1746313009312.4062,-20.5078125,-29.296875,-19.04296875,-47.36328125
6,1746313009316.3125,-9.27734375,-36.1328125,-20.99609375,-42.96875
7,1746313009320.2188,-1.46484375,-34.1796875,-15.625,-34.1796875
8,1746313009324.125,1.46484375,-30.2734375,-13.671875,-21.484375
9,1746313009328.0312,-4.8828125,-26.3671875,-9.27734375,-44.43359375
10,1746313009331.9375,-4.39453125,-23.4375,-9.27734375,-43.45703125
11,1746313009335.8438,-14.6484375,-23.4375,-14.16015625,-36.62109375
0,1746313009339.75,-30.76171875,-25.390625,-14.16015625,-34.66796875
1,1746313009343.6562,-19.53125,-22.94921875,-9.765625,-35.15625
2,1746313009347.5625,-16.11328125,-21.97265625,-11.23046875,-41.015625
3,1746313009351.4688,-10.25390625,-21.97265625,-8.30078125,-39.55078125
4,1746313009355.375,-5.37109375,-23.92578125,-6.8359375,-31.73828125
5,1746313009359.2812,-15.13671875,-26.3671875,-3.41796875,-39.55078125
6,1746313009363.1875,-19.53125,-26.85546875,-0.9765625,-46.875
7,1746313009367.0938,-6.34765625,-27.34375,-2.44140625,-23.92578125
8,1746313009371,-14.16015625,-26.3671875,-2.9296875,-23.92578125
9,1746313009374.9062,-5.859375,-25.390625,-15.625,-57.6171875
10,1746313009378.8125,-19.04296875,-22.94921875,-24.90234375,-64.94140625
11,1746313009382.7188,-28.80859375,-27.34375,-6.8359375,-44.921875
0,1746313009386.625,-16.6015625,-25.87890625,4.39453125,-54.6875
1,1746313009390.5312,-41.50390625,-19.53125,-2.44140625,-35.15625
2,1746313009394.4375,-27.83203125,-22.4609375,-4.39453125,-32.2265625
3,1746313009398.3438,-13.671875,-27.83203125,-5.859375,-40.52734375
4,1746313009402.25,-14.6484375,-25.390625,-5.37109375,-32.2265625
5,1746313009406.1562,-12.6953125,-21.97265625,-6.34765625,-34.66796875
6,1746313009410.0625,-20.01953125,-23.92578125,-9.765625,-38.0859375
7,1746313009413.9688,-15.625,-17.578125,-10.25390625,-48.828125
8,1746313009417.875,-18.5546875,-10.25390625,-11.23046875,-43.9453125
9,1746313009421.7812,2.44140625,-16.11328125,-6.34765625,-41.015625
10,1746313009425.6875,3.41796875,-21.97265625,0,-24.4140625
11,1746313009429.5938,-26.85546875,-18.06640625,-3.90625,-32.2265625
0,1746313009433.5,-15.13671875,-16.6015625,-7.32421875,-42.48046875
1,1746313009437.4062,-18.5546875,-18.06640625,-7.32421875,-31.73828125
2,1746313009441.3125,-30.76171875,-16.11328125,-6.8359375,-31.25
3,1746313009445.2188,-15.625,-19.04296875,-4.39453125,-29.78515625
4,1746313009449.125,-3.41796875,-20.01953125,-3.41796875,-34.66796875
5,1746313009453.0312,-24.4140625,-16.11328125,1.953125,-35.15625
6,1746313009456.9375,-32.2265625,-11.71875,4.8828125,-5.37109375
7,1746313009460.8438,-12.20703125,-9.765625,-0.48828125,-20.99609375
8,1746313009464.75,-5.37109375,-12.6953125,-1.953125,-37.59765625
9,1746313009468.6562,-9.765625,-12.6953125,-4.8828125,-24.4140625
10,1746313009472.5625,-0.48828125,-11.71875,-4.39453125,-41.9921875
11,1746313009476.4688,-1.46484375,-9.27734375,-3.90625,-27.83203125
0,1746313009480.375,-19.53125,-6.34765625,-3.90625,-4.39453125
1,1746313009484.2812,-10.7421875,-10.7421875,-3.41796875,-17.08984375
2,1746313009488.1875,-19.53125,-10.7421875,-9.765625,-8.7890625
3,1746313009492.0938,-33.69140625,-13.18359375,-15.13671875,-21.97265625
4,1746313009496,-26.85546875,-20.01953125,-15.13671875,-65.4296875
5,1746313009499.9062,-19.53125,-13.18359375,-8.30078125,-44.921875
6,1746313009503.8125,-24.90234375,-12.6953125,-7.8125,-22.94921875
7,1746313009507.7188,10.25390625,-17.578125,-10.25390625,-39.55078125
8,1746313009511.625,-1.953125,-10.7421875,-5.859375,-33.69140625
9,1746313009515.5312,-28.80859375,-9.765625,0,-38.57421875
10,1746313009519.4375,-25.390625,-13.18359375,-6.34765625,-49.8046875
11,1746313009523.3438,-27.34375,-11.23046875,-12.6953125,-18.06640625
0,1746313009527.25,4.8828125,-10.7421875,-10.7421875,-33.69140625
1,1746313009531.1562,-7.8125,-12.6953125,-11.23046875,-66.40625
2,1746313009535.0625,-59.08203125,-13.671875,-12.20703125,-63.4765625
3,1746313009538.9688,-42.96875,-12.6953125,-12.6953125,-60.546875
4,1746313009542.875,-21.97265625,-13.671875,-14.16015625,-55.17578125
5,1746313009546.7812,-33.69140625,-12.6953125,-16.6015625,-59.5703125
6,1746313009550.6875,-25.87890625,-12.6953125,-17.578125,-46.38671875
7,1746313009554.5938,-15.13671875,-15.625,-16.11328125,-57.6171875
8,1746313009558.5,-34.1796875,-12.6953125,-22.4609375,-69.82421875
9,1746313009562.4062,-41.50390625,-9.27734375,-24.4140625,-64.453125
10,1746313009566.3125,-28.80859375,-13.18359375,-19.04296875,-60.546875
11,1746313009570.2188,-9.27734375,-16.11328125,-20.01953125,-66.40625
0,1746313009574.125,-17.08984375,-15.625,-18.5546875,-67.87109375
1,1746313009578.0312,-7.8125,-13.671875,-18.06640625,-51.7578125
2,1746313009581.9375,1.46484375,-9.27734375,-16.11328125,-32.71484375
3,1746313009585.8438,-16.11328125,-7.32421875,-15.625,-20.01953125
4,1746313009589.75,-22.94921875,-14.16015625,-19.53125,-50.29296875
5,1746313009593.6562,-31.73828125,-13.671875,-19.04296875,-74.70703125
6,1746313009597.5625,-34.1796875,-10.25390625,-20.01953125,-62.01171875
7,1746313009601.4688,-22.4609375,-16.11328125,-26.3671875,-67.87109375
8,1746313009605.375,-14.16015625,-16.6015625,-26.85546875,-83.49609375
9,1746313009609.2812,-33.69140625,-10.25390625,-29.78515625,-67.3828125
10,1746313009613.1875,-47.8515625,-5.859375,-35.15625,-60.05859375
11,1746313009617.0938,-34.66796875,-9.27734375,-29.296875,-69.3359375
0,1746313009621,-23.4375,-15.625,-29.296875,-56.640625
1,1746313009624.9062,-36.62109375,-18.06640625,-40.52734375,-58.10546875
2,1746313009628.8125,-35.64453125,-19.04296875,-42.48046875,-73.73046875
3,1746313009632.7188,-6.8359375,-18.06640625,-39.55078125,-68.359375
4,1746313009636.625,-25.390625,-19.53125,-43.9453125,-50.78125
5,1746313009640.5312,-54.19921875,-18.06640625,-40.52734375,-47.36328125
6,1746313009644.4375,-35.15625,-19.04296875,-35.15625,-56.640625
7,1746313009648.3438,-41.50390625,-17.578125,-33.203125,-54.19921875
8,1746313009652.25,-26.3671875,-11.71875,-27.34375,-46.38671875
9,1746313009656.1562,-5.37109375,-10.25390625,-22.4609375,-57.6171875
10,1746313009660.0625,-32.71484375,-10.25390625,-19.53125,-64.453125
11,1746313009663.9688,-34.1796875,-11.23046875,-25.390625,-56.640625
0,1746313009667.875,-12.20703125,-5.37109375,-32.71484375,-67.3828125
1,1746313009671.7812,-22.94921875,-2.9296875,-34.66796875,-66.40625
2,1746313009675.6875,-48.828125,-5.37109375,-34.66796875,-59.5703125
3,1746313009679.5938,-3.41796875,-3.90625,-34.1796875,-59.5703125
4,1746313009683.5,10.25390625,-7.8125,-33.203125,-59.08203125
5,1746313009687.4062,-39.0625,-10.25390625,-28.3203125,-61.03515625
6,1746313009691.3125,-29.296875,-5.859375,-21.97265625,-58.10546875
7,1746313009695.2188,-9.27734375,-2.44140625,-19.04296875,-34.1796875
8,1746313009699.125,-8.7890625,1.46484375,-20.99609375,-29.78515625
9,1746313009703.0312,-5.37109375,4.8828125,-24.4140625,-49.8046875
10,1746313009706.9375,-6.34765625,6.8359375,-25.87890625,-57.12890625
11,1746313009710.8438,-5.859375,5.859375,-28.3203125,-67.87109375
0,1746313009714.75,15.13671875,3.41796875,-27.83203125,-93.26171875
1,1746313009718.6562,-16.6015625,-0.9765625,-24.90234375,-52.734375
2,1746313009722.5625,-31.25,-5.37109375,-21.484375,-14.6484375
3,1746313009726.4688,-22.4609375,-5.37109375,-19.04296875,-36.62109375
4,1746313009730.375,-3.90625,-5.37109375,-25.390625,-57.12890625
5,1746313009734.2812,-23.4375,-4.39453125,-22.4609375,-48.33984375
6,1746313009738.1875,-60.05859375,-9.765625,-10.7421875,-19.04296875
7,1746313009742.0938,-33.69140625,-10.25390625,-16.11328125,-40.0390625
8,1746313009746,-20.5078125,-0.9765625,-29.296875,-59.5703125
9,1746313009749.9062,-18.06640625,-4.39453125,-20.99609375,-45.41015625
10,1746313009753.8125,-7.32421875,-5.859375,-12.20703125,-49.8046875
11,1746313009757.7188,-9.27734375,-6.34765625,-13.671875,-40.52734375
0,1746313009761.625,-33.203125,-14.16015625,-16.6015625,-50.78125
1,1746313009765.5312,-45.41015625,-11.71875,-20.99609375,-45.41015625
2,1746313009769.4375,-22.94921875,-2.44140625,-18.5546875,-12.6953125
3,1746313009773.3438,-8.30078125,-4.8828125,-17.578125,-44.43359375
4,1746313009777.25,-8.30078125,-5.859375,-23.4375,-71.77734375
5,1746313009781.1562,-16.11328125,-4.39453125,-20.01953125,-54.6875
6,1746313009785.0625,-35.64453125,-0.9765625,-16.6015625,-43.9453125
7,1746313009788.9688,-20.01953125,0.9765625,-18.06640625,-57.12890625
8,1746313009792.875,-28.80859375,-6.34765625,-20.01953125,-50.29296875
9,1746313009796.7812,-45.41015625,-7.8125,-22.94921875,-30.2734375
10,1746313009800.6875,-36.62109375,-6.34765625,-20.99609375,-27.83203125
11,1746313009804.5938,-12.6953125,-12.20703125,-16.6015625,-45.8984375
0,1746313009808.5,-14.6484375,-8.30078125,-17.578125,-65.4296875
1,1746313009812.4062,-37.109375,-11.71875,-21.484375,-70.80078125
2,1746313009816.3125,-29.78515625,-17.578125,-20.99609375,-61.03515625
3,1746313009820.2188,-34.66796875,-8.30078125,-24.90234375,-62.01171875
4,1746313009824.125,-27.34375,-8.30078125,-22.94921875,-59.5703125
5,1746313009828.0312,-26.85546875,-13.18359375,-16.6015625,-50.78125
6,1746313009831.9375,-53.22265625,-12.6953125,-16.6015625,-62.98828125
7,1746313009835.8438,-62.01171875,-13.671875,-19.04296875,-79.58984375
8,1746313009839.75,-40.0390625,-15.13671875,-22.4609375,-74.70703125
9,1746313009843.6562,-7.8125,-16.6015625,-16.11328125,-45.41015625
10,1746313009847.5625,-20.5078125,-17.08984375,-14.16015625,-58.59375
11,1746313009851.4688,-42.96875,-17.578125,-17.578125,-81.0546875
0,1746313009855.375,-51.26953125,-18.06640625,-17.578125,-61.03515625
1,1746313009859.2812,-58.10546875,-17.08984375,-13.671875,-64.453125
2,1746313009863.1875,-59.5703125,-14.6484375,-16.11328125,-87.40234375
3,1746313009867.0938,-71.77734375,-15.13671875,-20.5078125,-91.30859375
4,1746313009871,-78.125,-19.53125,-19.04296875,-80.56640625
5,1746313009874.9062,-86.42578125,-22.4609375,-11.23046875,-92.28515625
6,1746313009878.8125,-101.07421875,-17.08984375,-5.37109375,-107.91015625
7,1746313009882.7188,-88.8671875,-17.08984375,-5.859375,-103.515625
8,1746313009886.625,-108.3984375,-26.85546875,-3.90625,-97.65625
9,1746313009890.5312,-125,-26.85546875,-2.9296875,-107.91015625
10,1746313009894.4375,-113.76953125,-18.5546875,-4.39453125,-120.1171875
11,1746313009898.3438,-119.140625,-14.6484375,-2.9296875,-115.234375
0,1746313009902.25,-113.28125,-13.18359375,-4.39453125,-101.5625
1,1746313009906.1562,-102.05078125,-18.06640625,-7.32421875,-120.1171875
2,1746313009910.0625,-134.27734375,-25.390625,-7.8125,-126.46484375
3,1746313009913.9688,-155.2734375,-21.97265625,-16.11328125,-121.09375
4,1746313009917.875,-131.8359375,-10.7421875,-15.625,-145.99609375
5,1746313009921.7812,-101.5625,-6.34765625,-10.7421875,-113.28125
6,1746313009925.6875,-90.33203125,-11.71875,-14.6484375,-76.171875
7,1746313009929.5938,-66.89453125,-9.27734375,-17.08984375,-102.05078125
8,1746313009933.5,-91.30859375,-3.90625,-17.578125,-100.5859375
9,1746313009937.4062,-103.515625,-2.9296875,-3.90625,-85.44921875
10,1746313009941.3125,-64.453125,-8.30078125,-3.90625,-76.66015625
11,1746313009945.2188,-81.0546875,-13.671875,-19.04296875,-74.21875
0,1746313009949.125,-54.19921875,-10.7421875,-21.484375,-60.546875
1,1746313009953.0312,-17.578125,-15.625,-20.5078125,-31.73828125
2,1746313009956.9375,-41.9921875,-14.6484375,-22.4609375,-8.7890625
3,1746313009960.8438,-22.4609375,-14.16015625,-24.90234375,-7.8125
4,1746313009964.75,-5.37109375,-16.6015625,-37.109375,-9.27734375
5,1746313009968.6562,-8.7890625,-12.6953125,-34.1796875,5.859375
6,1746313009972.5625,-0.9765625,-13.18359375,-16.6015625,17.08984375
7,1746313009976.4688,12.20703125,-14.16015625,-17.08984375,17.08984375
8,1746313009980.375,18.5546875,-8.30078125,-19.04296875,20.01953125
9,1746313009984.2812,25.87890625,-3.90625,-20.5078125,41.50390625
10,1746313009988.1875,38.57421875,-6.8359375,-20.01953125,41.50390625
11,1746313009992.0938,65.4296875,-6.34765625,-21.484375,38.57421875
0,1746313009996,50.78125,-5.859375,-23.92578125,26.85546875
1,1746313009999.9062,3.90625,-13.18359375,-25.87890625,2.44140625
2,1746313010003.8125,8.7890625,-6.8359375,-30.2734375,13.671875
3,1746313010007.7188,31.73828125,-1.46484375,-31.25,45.8984375
4,1746313010011.625,22.4609375,0,-29.296875,24.90234375
5,1746313010015.5312,15.625,6.34765625,-25.87890625,6.34765625
6,1746313010019.4375,41.015625,-1.46484375,-27.83203125,32.2265625
7,1746313010023.3438,35.64453125,-14.16015625,-33.203125,16.6015625
8,1746313010027.25,13.671875,-13.671875,-33.203125,-5.859375
9,1746313010031.1562,22.94921875,-9.765625,-30.2734375,14.16015625
10,1746313010035.0625,31.25,-8.30078125,-33.69140625,24.4140625
11,1746313010038.9688,5.859375,-12.6953125,-33.69140625,8.7890625
0,1746313010042.875,-8.7890625,-13.18359375,-32.71484375,-5.37109375
1,1746313010046.7812,14.6484375,-4.39453125,-34.66796875,-7.32421875
2,1746313010050.6875,-3.90625,-3.41796875,-31.25,-2.9296875
3,1746313010054.5938,-18.06640625,-9.27734375,-31.73828125,16.11328125
4,1746313010058.5,3.90625,-15.13671875,-31.25,7.8125
5,1746313010062.4062,-0.9765625,-13.671875,-33.69140625,-14.16015625
6,1746313010066.3125,1.46484375,-15.13671875,-33.203125,-14.6484375
7,1746313010070.2188,16.6015625,-13.18359375,-28.3203125,-5.859375
8,1746313010074.125,10.7421875,-0.9765625,-20.5078125,-14.16015625
9,1746313010078.0312,14.16015625,-1.953125,-19.04296875,-35.64453125
10,1746313010081.9375,17.08984375,-6.8359375,-25.87890625,-11.71875
11,1746313010085.8438,2.44140625,-13.18359375,-21.97265625,12.20703125
0,1746313010089.75,6.8359375,-9.765625,-18.06640625,-7.8125
1,1746313010093.6562,26.3671875,-8.30078125,-22.94921875,-5.859375
2,1746313010097.5625,-1.46484375,-10.25390625,-22.94921875,-4.39453125
3,1746313010101.4688,-38.0859375,-8.7890625,-26.85546875,-8.30078125
4,1746313010105.375,13.18359375,-13.671875,-33.203125,-2.44140625
5,1746313010109.2812,4.8828125,-16.11328125,-28.3203125,-13.671875
6,1746313010113.1875,-13.671875,-15.13671875,-24.90234375,-17.578125
7,1746313010117.0938,-5.37109375,-4.8828125,-28.3203125,-18.06640625
8,1746313010121,-18.06640625,-10.7421875,-24.4140625,-31.25
9,1746313010124.9062,-17.08984375,-22.4609375,-25.390625,-34.66796875
10,1746313010128.8125,-13.18359375,-14.6484375,-24.90234375,-39.55078125
11,1746313010132.7188,16.6015625,-12.6953125,-20.01953125,-22.94921875
0,1746313010136.625,7.8125,-22.94921875,-20.01953125,1.953125
1,1746313010140.5312,-5.37109375,-12.20703125,-20.5078125,-7.8125
2,1746313010144.4375,-8.7890625,-8.7890625,-19.04296875,-18.5546875
3,1746313010148.3438,-23.4375,-17.08984375,-20.01953125,-11.71875
4,1746313010152.25,-19.04296875,-10.7421875,-20.5078125,-19.53125
5,1746313010156.1562,-15.625,-9.765625,-21.97265625,-8.7890625
6,1746313010160.0625,-23.4375,-13.671875,-26.3671875,-13.671875
7,1746313010163.9688,-21.484375,-18.06640625,-32.71484375,-26.85546875
8,1746313010167.875,-10.25390625,-11.71875,-34.66796875,-22.94921875
9,1746313010171.7812,-23.4375,-13.671875,-23.4375,-13.18359375
10,1746313010175.6875,-9.765625,-20.01953125,-25.87890625,-20.01953125
11,1746313010179.5938,2.44140625,-18.06640625,-34.66796875,-35.64453125
0,1746313010183.5,-28.80859375,-18.5546875,-31.25,-41.015625
1,1746313010187.4062,-28.3203125,-15.625,-28.3203125,-47.8515625
2,1746313010191.3125,-20.99609375,-10.7421875,-31.25,-41.9921875
3,1746313010195.2188,-22.94921875,-15.13671875,-33.203125,-44.43359375
4,1746313010199.125,-36.1328125,-20.01953125,-26.3671875,-22.4609375
5,1746313010203.0312,-22.4609375,-15.625,-22.94921875,-12.6953125
6,1746313010206.9375,-11.71875,-16.11328125,-29.296875,-29.78515625
7,1746313010210.8438,-36.62109375,-18.06640625,-33.203125,-42.96875
8,1746313010214.75,-39.55078125,-13.18359375,-32.71484375,-45.8984375
9,1746313010218.6562,-2.9296875,-5.859375,-30.76171875,-31.25
10,1746313010222.5625,13.671875,-6.34765625,-29.296875,-33.69140625
11,1746313010226.4688,-12.6953125,-9.765625,-28.3203125,-52.24609375
0,1746313010230.375,-27.83203125,-18.06640625,-24.4140625,-46.875
1,1746313010234.2812,-40.0390625,-22.94921875,-20.01953125,-50.78125
2,1746313010238.1875,-32.2265625,-14.6484375,-23.4375,-42.96875
3,1746313010242.0938,-21.97265625,-17.578125,-29.78515625,-49.31640625
4,1746313010246,-21.97265625,-16.11328125,-32.71484375,-50.29296875
5,1746313010249.9062,-25.390625,-7.8125,-31.25,-21.97265625
6,1746313010253.8125,-20.01953125,-14.6484375,-34.1796875,-26.3671875
7,1746313010257.7188,-34.1796875,-14.16015625,-44.43359375,-41.50390625
8,1746313010261.625,-28.80859375,-12.20703125,-44.921875,-53.22265625
9,1746313010265.5312,-11.23046875,-19.04296875,-33.203125,-56.15234375
10,1746313010269.4375,-3.41796875,-22.4609375,-36.62109375,-35.64453125
11,1746313010273.3438,-33.203125,-20.01953125,-39.55078125,-27.83203125
0,1746313010277.25,-49.31640625,-19.04296875,-33.69140625,-40.0390625
1,1746313010281.1562,-17.08984375,-21.97265625,-33.203125,-42.48046875
2,1746313010285.0625,-51.26953125,-17.08984375,-32.2265625,-38.0859375
3,1746313010288.9688,-46.38671875,-22.94921875,-26.85546875,-57.12890625
4,1746313010292.875,0.9765625,-33.203125,-27.83203125,-40.0390625
5,1746313010296.7812,-10.25390625,-24.90234375,-30.76171875,-8.7890625
6,1746313010300.6875,-20.99609375,-21.484375,-28.80859375,-11.23046875
7,1746313010304.5938,-7.32421875,-24.4140625,-30.76171875,-38.0859375
8,1746313010308.5,-1.953125,-21.97265625,-27.83203125,-38.0859375
9,1746313010312.4062,-29.296875,-23.92578125,-27.83203125,-31.73828125
10,1746313010316.3125,-39.0625,-21.484375,-37.59765625,-35.64453125
11,1746313010320.2188,-2.9296875,-21.97265625,-42.48046875,-25.87890625
0,1746313010324.125,-4.8828125,-25.390625,-35.15625,-41.9921875
1,1746313010328.0312,-39.0625,-24.90234375,-30.2734375,-53.22265625
2,1746313010331.9375,-34.1796875,-23.4375,-31.25,-30.76171875
3,1746313010335.8438,-18.06640625,-25.390625,-31.73828125,-11.23046875
4,1746313010339.75,-13.18359375,-25.390625,-33.203125,-29.78515625
5,1746313010343.6562,-17.08984375,-26.3671875,-29.296875,-28.80859375
6,1746313010347.5625,-11.71875,-25.390625,-24.90234375,-31.73828125
7,1746313010351.4688,-24.4140625,-20.99609375,-28.80859375,-45.41015625
8,1746313010355.375,-8.30078125,-17.578125,-31.25,-36.62109375
9,1746313010359.2812,2.9296875,-29.78515625,-29.296875,-33.203125
10,1746313010363.1875,-41.50390625,-33.203125,-28.3203125,-48.828125
11,1746313010367.0938,-55.6640625,-28.80859375,-31.25,-50.78125
0,1746313010371,-41.9921875,-33.203125,-31.25,-38.0859375
1,1746313010374.9062,-32.71484375,-31.73828125,-31.25,-32.2265625
2,1746313010378.8125,-43.45703125,-32.2265625,-30.2734375,-51.7578125
3,1746313010382.7188,-29.296875,-27.83203125,-30.2734375,-58.10546875
4,1746313010386.625,-24.4140625,-26.3671875,-34.1796875,-42.96875
5,1746313010390.5312,-27.83203125,-29.296875,-34.1796875,-59.08203125
6,1746313010394.4375,-30.76171875,-29.296875,-32.2265625,-46.875
7,1746313010398.3438,-47.36328125,-34.66796875,-30.76171875,-12.6953125
8,1746313010402.25,-37.109375,-32.2265625,-30.2734375,-15.625
9,1746313010406.1562,-8.30078125,-22.94921875,-31.25,-22.4609375
10,1746313010410.0625,-3.90625,-27.83203125,-38.57421875,-26.3671875
11,1746313010413.9688,-34.1796875,-34.1796875,-43.45703125,-46.875
0,1746313010417.875,-42.48046875,-30.2734375,-39.0625,-42.96875
1,1746313010421.7812,-23.92578125,-34.66796875,-34.66796875,-30.2734375
2,1746313010425.6875,-38.0859375,-28.3203125,-33.203125,-49.31640625
3,1746313010429.5938,-60.546875,-28.80859375,-30.76171875,-30.76171875
4,1746313010433.5,-56.15234375,-36.1328125,-33.69140625,-24.90234375
5,1746313010437.4062,-32.2265625,-34.66796875,-37.59765625,-30.2734375
6,1746313010441.3125,-42.96875,-38.0859375,-34.66796875,-28.80859375
7,1746313010445.2188,-62.01171875,-39.0625,-33.69140625,-35.15625
8,1746313010449.125,-39.55078125,-35.64453125,-35.15625,-30.2734375
9,1746313010453.0312,-0.48828125,-32.71484375,-33.69140625,-5.859375
10,1746313010456.9375,-6.34765625,-31.25,-34.1796875,4.39453125
11,1746313010460.8438,-47.8515625,-37.59765625,-36.1328125,-14.16015625
0,1746313010464.75,-53.22265625,-38.0859375,-31.73828125,-8.30078125
1,1746313010468.6562,-42.96875,-24.90234375,-26.85546875,-19.53125
2,1746313010472.5625,-37.109375,-20.99609375,-26.3671875,-30.76171875
3,1746313010476.4688,-52.734375,-25.87890625,-29.78515625,5.37109375
4,1746313010480.375,-58.10546875,-27.83203125,-35.64453125,-8.7890625
5,1746313010484.2812,-26.3671875,-30.2734375,-37.109375,-22.4609375
6,1746313010488.1875,-29.296875,-33.69140625,-36.1328125,-25.87890625
7,1746313010492.0938,-33.69140625,-29.78515625,-41.50390625,-37.109375
8,1746313010496,-13.671875,-33.203125,-39.0625,-32.2265625
9,1746313010499.9062,-51.26953125,-39.0625,-35.15625,-40.0390625
10,1746313010503.8125,-50.29296875,-28.3203125,-37.59765625,-31.25
11,1746313010507.7188,-31.25,-18.5546875,-33.69140625,-15.625
0,1746313010511.625,-67.3828125,-23.92578125,-38.0859375,-30.2734375
1,1746313010515.5312,-65.4296875,-28.3203125,-39.55078125,-41.015625
2,1746313010519.4375,-43.9453125,-33.203125,-32.2265625,-29.78515625
3,1746313010523.3438,-80.078125,-31.73828125,-33.203125,-42.48046875
4,1746313010527.25,-106.4453125,-25.87890625,-35.15625,-61.5234375
5,1746313010531.1562,-111.328125,-33.203125,-27.83203125,-37.109375
6,1746313010535.0625,-112.3046875,-31.25,-27.34375,-60.05859375
7,1746313010538.9688,-124.0234375,-27.34375,-31.25,-90.33203125
8,1746313010542.875,-125,-39.55078125,-25.87890625,-78.125
9,1746313010546.7812,-126.46484375,-40.52734375,-18.5546875,-71.77734375
10,1746313010550.6875,-160.15625,-31.25,-23.92578125,-95.21484375
11,1746313010554.5938,-172.8515625,-28.3203125,-29.78515625,-105.95703125
0,1746313010558.5,-169.921875,-26.3671875,-29.296875,-85.9375
1,1746313010562.4062,-159.66796875,-30.76171875,-27.83203125,-98.6328125
2,1746313010566.3125,-167.48046875,-41.9921875,-24.90234375,-114.2578125
3,1746313010570.2188,-176.26953125,-33.203125,-28.80859375,-101.07421875
4,1746313010574.125,-161.1328125,-27.83203125,-32.2265625,-92.7734375
5,1746313010578.0312,-132.8125,-20.5078125,-37.109375,-110.83984375
6,1746313010581.9375,-104.4921875,-24.90234375,-34.66796875,-89.35546875
7,1746313010585.8438,-141.6015625,-50.78125,-25.390625,-66.89453125
8,1746313010589.75,-148.92578125,-38.57421875,-25.390625,-73.2421875
9,1746313010593.6562,-113.76953125,-24.90234375,-35.64453125,-82.51953125
10,1746313010597.5625,-107.91015625,-21.97265625,-38.0859375,-86.42578125
11,1746313010601.4688,-95.703125,-23.4375,-32.71484375,-72.75390625
0,1746313010605.375,-83.49609375,-26.3671875,-37.59765625,-62.01171875
1,1746313010609.2812,-89.84375,-30.2734375,-36.1328125,-64.94140625
2,1746313010613.1875,-103.515625,-28.80859375,-36.62109375,-58.10546875
3,1746313010617.0938,-98.6328125,-28.80859375,-42.48046875,-66.40625
4,1746313010621,-61.5234375,-37.59765625,-38.0859375,-64.94140625
5,1746313010624.9062,-27.83203125,-42.48046875,-33.69140625,-40.52734375
6,1746313010628.8125,-41.015625,-39.0625,-40.52734375,-20.5078125
7,1746313010632.7188,-60.546875,-35.64453125,-41.015625,-32.2265625
8,1746313010636.625,-62.01171875,-45.41015625,-32.71484375,-25.390625
9,1746313010640.5312,-39.0625,-45.8984375,-29.78515625,1.953125
10,1746313010644.4375,-25.87890625,-41.50390625,-32.2265625,-22.4609375
11,1746313010648.3438,-36.62109375,-41.015625,-35.64453125,-18.5546875
0,1746313010652.25,-18.5546875,-45.8984375,-33.69140625,12.20703125
1,1746313010656.1562,-5.859375,-43.9453125,-29.78515625,15.13671875
2,1746313010660.0625,-1.46484375,-43.9453125,-35.15625,30.2734375
3,1746313010663.9688,17.08984375,-46.38671875,-41.50390625,43.45703125
4,1746313010667.875,14.16015625,-42.48046875,-44.43359375,37.109375
5,1746313010671.7812,-3.90625,-34.1796875,-44.921875,16.11328125
6,1746313010675.6875,6.8359375,-26.3671875,-43.9453125,10.25390625
7,1746313010679.5938,31.25,-37.109375,-42.48046875,46.38671875
8,1746313010683.5,40.52734375,-47.36328125,-41.50390625,49.31640625
9,1746313010687.4062,26.3671875,-41.50390625,-37.59765625,42.96875
10,1746313010691.3125,14.6484375,-33.69140625,-37.109375,48.33984375
11,1746313010695.2188,18.06640625,-32.71484375,-43.9453125,41.9921875
0,1746313010699.125,4.8828125,-29.78515625,-46.875,30.76171875
1,1746313010703.0312,1.953125,-35.15625,-43.9453125,46.38671875
2,1746313010706.9375,18.5546875,-40.52734375,-40.0390625,62.01171875
3,1746313010710.8438,39.0625,-39.55078125,-39.55078125,52.734375
4,1746313010714.75,23.92578125,-39.55078125,-44.43359375,25.87890625
5,1746313010718.6562,0,-33.69140625,-41.015625,17.578125
6,1746313010722.5625,13.671875,-36.62109375,-42.48046875,23.92578125
7,1746313010726.4688,26.85546875,-41.50390625,-42.48046875,22.94921875
8,1746313010730.375,6.34765625,-30.2734375,-35.64453125,11.71875
9,1746313010734.2812,-14.6484375,-30.2734375,-34.1796875,25.390625
10,1746313010738.1875,-3.41796875,-43.45703125,-36.1328125,40.52734375
11,1746313010742.0938,-16.6015625,-41.50390625,-39.0625,44.43359375
0,1746313010746,12.20703125,-32.2265625,-37.59765625,41.9921875
1,1746313010749.9062,48.33984375,-34.66796875,-39.0625,20.5078125
2,1746313010753.8125,-9.765625,-35.15625,-38.0859375,31.73828125
3,1746313010757.7188,-12.6953125,-30.76171875,-33.69140625,35.64453125
4,1746313010761.625,15.13671875,-37.109375,-35.64453125,23.92578125
5,1746313010765.5312,-10.25390625,-35.15625,-35.64453125,2.9296875
6,1746313010769.4375,9.765625,-36.1328125,-34.66796875,3.90625
7,1746313010773.3438,20.01953125,-35.15625,-38.0859375,9.765625
8,1746313010777.25,3.41796875,-31.73828125,-32.71484375,4.8828125
9,1746313010781.1562,0.48828125,-36.62109375,-27.34375,17.578125
10,1746313010785.0625,9.27734375,-35.64453125,-28.80859375,15.625
11,1746313010788.9688,-10.7421875,-34.1796875,-34.66796875,-5.859375
0,1746313010792.875,-27.83203125,-39.55078125,-42.96875,1.953125
1,1746313010796.7812,-8.7890625,-38.0859375,-41.015625,13.671875
2,1746313010800.6875,22.4609375,-37.109375,-35.64453125,-5.37109375
3,1746313010804.5938,2.44140625,-41.015625,-32.2265625,12.20703125
4,1746313010808.5,-12.6953125,-37.109375,-31.73828125,5.37109375
5,1746313010812.4062,-13.18359375,-40.52734375,-32.71484375,-10.7421875
6,1746313010816.3125,-37.109375,-44.921875,-31.73828125,2.44140625
7,1746313010820.2188,-25.390625,-41.50390625,-32.2265625,11.71875
8,1746313010824.125,-13.18359375,-34.66796875,-34.66796875,-4.8828125
9,1746313010828.0312,-15.13671875,-34.66796875,-37.109375,-25.390625
