index,unixTimestamp,TP9,AF7,AF8,TP10
0,1746312948496,0,0,0,0
1,1746312948499.9062,-0.48828125,0,0,-0.48828125
2,1746312948503.8125,-0.48828125,-0.9765625,-1.953125,-0.48828125
3,1746312948507.7188,0.9765625,0.9765625,4.39453125,1.46484375
4,1746312948511.625,-7.32421875,-7.8125,-18.5546875,-11.71875
5,1746312948515.5312,-3.41796875,-29.78515625,-45.41015625,-9.765625
6,1746312948519.4375,12.20703125,-57.12890625,-14.6484375,-12.6953125
7,1746312948523.3438,-22.4609375,-60.05859375,-5.37109375,-38.0859375
8,1746312948527.25,-45.41015625,-26.3671875,-21.484375,-33.69140625
9,1746312948531.1562,-20.01953125,-11.71875,-22.4609375,-17.08984375
10,1746312948535.0625,-28.3203125,-27.34375,-20.99609375,-2.44140625
11,1746312948538.9688,-37.109375,-50.78125,-33.69140625,4.39453125
0,1746312948542.875,-20.99609375,-71.77734375,-32.2265625,-7.32421875
1,1746312948546.7812,-30.76171875,-59.08203125,-33.203125,-19.04296875
2,1746312948550.6875,-46.875,-37.59765625,-42.48046875,-2.9296875
3,1746312948554.5938,-35.64453125,-51.7578125,-28.3203125,-2.9296875
4,1746312948558.5,-25.87890625,-62.98828125,-20.5078125,-17.08984375
5,1746312948562.4062,-30.2734375,-39.55078125,-28.80859375,-28.3203125
6,1746312948566.3125,-39.0625,-0.9765625,-41.50390625,-17.578125
7,1746312948570.2188,-58.10546875,-4.8828125,-24.4140625,1.953125
8,1746312948574.125,-71.2890625,-29.296875,-28.3203125,-52.24609375
9,1746312948578.0312,-46.875,-34.1796875,-38.57421875,-59.08203125
10,1746312948581.9375,-54.6875,-25.390625,-23.4375,-29.296875
11,1746312948585.8438,-65.91796875,-14.6484375,-29.296875,-37.59765625
0,1746312948589.75,-40.52734375,-27.83203125,-23.92578125,-23.4375
1,1746312948593.6562,-28.3203125,-73.73046875,-6.34765625,3.90625
2,1746312948597.5625,-66.40625,-63.4765625,-41.015625,-37.59765625
3,1746312948601.4688,-83.984375,-18.06640625,-74.70703125,-76.66015625
4,1746312948605.375,-39.0625,-14.6484375,-56.640625,-47.36328125
5,1746312948609.2812,-46.875,-8.7890625,-54.19921875,-45.8984375
6,1746312948613.1875,-69.82421875,-24.90234375,-28.3203125,-55.6640625
7,1746312948617.0938,-73.73046875,-46.875,-9.765625,-43.9453125
8,1746312948621,-99.12109375,-39.55078125,-25.87890625,-64.453125
9,1746312948624.9062,-125.48828125,-41.50390625,-29.296875,-94.23828125
10,1746312948628.8125,-142.08984375,-37.59765625,-33.203125,-100.5859375
11,1746312948632.7188,-142.08984375,-41.015625,-22.94921875,-82.03125
0,1746312948636.625,-117.67578125,-46.38671875,-6.8359375,-83.0078125
1,1746312948640.5312,-112.79296875,-46.875,-5.859375,-107.91015625
2,1746312948644.4375,-117.1875,-55.6640625,-0.48828125,-105.46875
3,1746312948648.3438,-127.44140625,-53.22265625,8.7890625,-95.21484375
4,1746312948652.25,-162.109375,-49.8046875,5.859375,-114.2578125
5,1746312948656.1562,-151.85546875,-55.17578125,-2.44140625,-134.765625
6,1746312948660.0625,-138.18359375,-59.5703125,-13.18359375,-133.30078125
7,1746312948663.9688,-155.2734375,-56.15234375,-16.6015625,-132.32421875
8,1746312948667.875,-172.8515625,-55.6640625,-6.8359375,-136.23046875
9,1746312948671.7812,-168.45703125,-56.640625,-1.46484375,-148.4375
10,1746312948675.6875,-181.640625,-52.24609375,-12.20703125,-158.69140625
11,1746312948679.5938,-174.8046875,-53.7109375,-14.6484375,-145.99609375
0,1746312948683.5,-155.2734375,-58.59375,-8.30078125,-128.90625
1,1746312948687.4062,-154.78515625,-61.03515625,-8.30078125,-131.8359375
2,1746312948691.3125,-141.6015625,-60.05859375,-10.7421875,-124.0234375
3,1746312948695.2188,-135.7421875,-64.453125,-12.20703125,-98.14453125
4,1746312948699.125,-144.04296875,-70.80078125,-9.765625,-81.54296875
5,1746312948703.0312,-138.671875,-59.5703125,-8.30078125,-80.078125
6,1746312948706.9375,-125,-47.8515625,-6.8359375,-93.75
7,1746312948710.8438,-105.46875,-56.15234375,-13.18359375,-81.0546875
8,1746312948714.75,-90.33203125,-57.6171875,-10.7421875,-39.55078125
9,1746312948718.6562,-59.5703125,-55.6640625,-3.41796875,-32.2265625
10,1746312948722.5625,-42.96875,-51.26953125,-8.7890625,-42.96875
11,1746312948726.4688,-66.40625,-57.12890625,-12.6953125,-41.9921875
0,1746312948730.375,-41.015625,-60.546875,-12.6953125,-27.83203125
1,1746312948734.2812,-15.625,-51.7578125,-13.18359375,-8.7890625
2,1746312948738.1875,-17.08984375,-44.921875,-15.13671875,6.8359375
3,1746312948742.0938,-18.5546875,-41.9921875,-16.11328125,15.13671875
4,1746312948746,2.44140625,-45.8984375,-17.08984375,18.06640625
5,1746312948749.9062,33.203125,-38.57421875,-16.6015625,25.87890625
6,1746312948753.8125,42.96875,-38.57421875,-19.53125,54.19921875
7,1746312948757.7188,11.71875,-41.9921875,-32.2265625,47.8515625
8,1746312948761.625,14.16015625,-36.62109375,-30.2734375,16.11328125
9,1746312948765.5312,47.8515625,-35.15625,-20.99609375,61.03515625
10,1746312948769.4375,50.29296875,-34.1796875,-30.76171875,78.61328125
11,1746312948773.3438,36.1328125,-35.64453125,-41.015625,68.359375
0,1746312948777.25,69.3359375,-29.78515625,-39.0625,60.546875
1,1746312948781.1562,84.9609375,-25.87890625,-36.1328125,58.10546875
2,1746312948785.0625,45.41015625,-26.85546875,-40.0390625,77.1484375
3,1746312948788.9688,49.31640625,-21.97265625,-45.41015625,65.4296875
4,1746312948792.875,62.01171875,-16.6015625,-47.36328125,56.15234375
5,1746312948796.7812,53.7109375,-3.41796875,-41.015625,83.0078125
6,1746312948800.6875,50.78125,6.8359375,-42.96875,75.1953125
7,1746312948804.5938,55.17578125,12.6953125,-50.78125,54.19921875
8,1746312948808.5,47.8515625,21.97265625,-49.8046875,48.33984375
9,1746312948812.4062,62.98828125,30.2734375,-45.8984375,71.2890625
10,1746312948816.3125,87.40234375,46.875,-45.8984375,65.91796875
11,1746312948820.2188,67.3828125,62.5,-48.33984375,28.3203125
0,1746312948824.125,45.8984375,64.94140625,-49.31640625,44.43359375
1,1746312948828.0312,60.05859375,69.82421875,-51.26953125,43.45703125
2,1746312948831.9375,66.40625,72.265625,-52.24609375,44.921875
3,1746312948835.8438,52.734375,82.03125,-53.7109375,21.97265625
4,1746312948839.75,33.69140625,86.9140625,-61.03515625,7.32421875
5,1746312948843.6562,15.13671875,73.73046875,-58.59375,-2.9296875
6,1746312948847.5625,5.37109375,54.19921875,-49.8046875,-21.484375
7,1746312948851.4688,6.8359375,43.9453125,-50.78125,16.6015625
8,1746312948855.375,31.25,42.48046875,-49.31640625,12.6953125
9,1746312948859.2812,20.99609375,40.52734375,-45.41015625,-3.41796875
10,1746312948863.1875,-18.5546875,51.26953125,-45.41015625,6.8359375
11,1746312948867.0938,0.9765625,76.171875,-47.36328125,-12.20703125
0,1746312948871,17.08984375,91.30859375,-52.24609375,-45.8984375
1,1746312948874.9062,-11.23046875,83.0078125,-51.7578125,-43.45703125
2,1746312948878.8125,-13.671875,76.171875,-48.828125,-34.66796875
3,1746312948882.7188,-5.859375,80.078125,-49.31640625,-36.1328125
4,1746312948886.625,-10.7421875,68.359375,-45.41015625,-29.78515625
5,1746312948890.5312,-18.06640625,68.359375,-46.38671875,-38.0859375
6,1746312948894.4375,-9.765625,82.51953125,-49.8046875,-60.05859375
7,1746312948898.3438,4.8828125,70.80078125,-46.38671875,-49.8046875
8,1746312948902.25,6.34765625,59.5703125,-46.38671875,-55.6640625
9,1746312948906.1562,-35.64453125,58.10546875,-49.31640625,-54.6875
10,1746312948910.0625,-23.92578125,54.6875,-50.78125,-48.33984375
11,1746312948913.9688,-5.859375,52.24609375,-47.36328125,-40.0390625
0,1746312948917.875,-26.85546875,47.36328125,-45.41015625,-16.6015625
1,1746312948921.7812,-13.18359375,41.50390625,-42.96875,-14.16015625
2,1746312948925.6875,-9.27734375,32.2265625,-39.55078125,-32.2265625
3,1746312948929.5938,-18.06640625,18.5546875,-39.55078125,-32.71484375
4,1746312948933.5,-20.5078125,13.18359375,-35.15625,-30.2734375
5,1746312948937.4062,-20.99609375,11.71875,-33.69140625,-21.484375
6,1746312948941.3125,-25.87890625,0.9765625,-41.50390625,-25.390625
7,1746312948945.2188,-22.94921875,1.953125,-43.9453125,-50.78125
8,1746312948949.125,-6.34765625,3.41796875,-42.96875,-46.875
9,1746312948953.0312,-17.08984375,-1.46484375,-41.9921875,-42.48046875
10,1746312948956.9375,-22.94921875,-0.48828125,-33.203125,-35.64453125
11,1746312948960.8438,-7.32421875,-4.8828125,-29.296875,-29.78515625
0,1746312948964.75,2.9296875,-10.7421875,-31.73828125,-35.64453125
1,1746312948968.6562,-7.32421875,-16.6015625,-35.15625,-31.73828125
2,1746312948972.5625,-10.7421875,-17.08984375,-35.15625,-19.04296875
3,1746312948976.4688,-9.765625,-22.4609375,-34.1796875,-27.83203125
4,1746312948980.375,-1.953125,-29.296875,-40.52734375,-41.015625
5,1746312948984.2812,0.9765625,-17.578125,-35.15625,-6.34765625
6,1746312948988.1875,-33.69140625,-20.99609375,-37.59765625,-26.85546875
7,1746312948992.0938,-39.55078125,-38.57421875,-43.45703125,-56.15234375
8,1746312948996,-40.52734375,-41.9921875,-37.59765625,-50.78125
9,1746312948999.9062,-28.3203125,-38.0859375,-42.48046875,-36.62109375
10,1746312949003.8125,-23.4375,-34.66796875,-44.43359375,-29.78515625
11,1746312949007.7188,-28.80859375,-40.52734375,-42.48046875,-43.9453125
0,1746312949011.625,-25.87890625,-43.9453125,-43.45703125,-50.78125
1,1746312949015.5312,-13.18359375,-30.76171875,-40.0390625,-35.15625
2,1746312949019.4375,-18.06640625,-24.90234375,-38.57421875,-9.765625
3,1746312949023.3438,-36.62109375,-24.4140625,-41.50390625,-44.43359375
4,1746312949027.25,-31.25,-19.53125,-43.45703125,-76.171875
5,1746312949031.1562,-24.4140625,-17.578125,-41.50390625,-61.03515625
6,1746312949035.0625,-27.34375,-24.90234375,-41.9921875,-58.10546875
7,1746312949038.9688,-37.59765625,-36.1328125,-43.9453125,-58.10546875
8,1746312949042.875,-44.43359375,-42.96875,-40.0390625,-50.78125
9,1746312949046.7812,-25.390625,-43.45703125,-38.57421875,-50.29296875
10,1746312949050.6875,-17.578125,-40.52734375,-37.109375,-32.2265625
11,1746312949054.5938,-26.3671875,-35.64453125,-39.0625,-51.7578125
0,1746312949058.5,-32.71484375,-31.73828125,-35.64453125,-55.17578125
1,1746312949062.4062,-21.97265625,-30.76171875,-35.64453125,-41.50390625
2,1746312949066.3125,-22.94921875,-35.64453125,-41.015625,-49.31640625
3,1746312949070.2188,-41.015625,-38.57421875,-41.015625,-47.8515625
4,1746312949074.125,-29.78515625,-35.64453125,-44.921875,-60.05859375
5,1746312949078.0312,-25.390625,-32.2265625,-43.9453125,-62.01171875
6,1746312949081.9375,-29.296875,-31.25,-38.57421875,-54.19921875
7,1746312949085.8438,-27.34375,-35.64453125,-35.64453125,-51.7578125
8,1746312949089.75,-36.62109375,-46.38671875,-39.0625,-41.50390625
9,1746312949093.6562,-31.25,-43.9453125,-45.41015625,-52.734375
10,1746312949097.5625,-27.34375,-37.59765625,-42.48046875,-66.89453125
11,1746312949101.4688,-32.71484375,-37.59765625,-39.0625,-20.5078125
0,1746312949105.375,-26.85546875,-37.109375,-33.69140625,-24.4140625
1,1746312949109.2812,-21.484375,-38.57421875,-30.76171875,-71.77734375
2,1746312949113.1875,-36.62109375,-32.71484375,-31.73828125,-61.5234375
3,1746312949117.0938,-37.109375,-31.25,-30.76171875,-49.31640625
4,1746312949121,-25.390625,-33.69140625,-29.78515625,-39.55078125
5,1746312949124.9062,-19.53125,-30.2734375,-27.83203125,-19.53125
6,1746312949128.8125,-16.6015625,-26.85546875,-29.78515625,-38.0859375
7,1746312949132.7188,-22.4609375,-26.3671875,-35.64453125,-60.546875
8,1746312949136.625,-15.625,-25.87890625,-31.25,-46.38671875
9,1746312949140.5312,-25.390625,-27.34375,-27.34375,-33.69140625
10,1746312949144.4375,-41.50390625,-29.78515625,-26.85546875,-39.55078125
11,1746312949148.3438,-28.80859375,-24.90234375,-25.87890625,-16.11328125
0,1746312949152.25,-25.390625,-22.4609375,-28.80859375,-15.13671875
1,1746312949156.1562,-34.66796875,-26.85546875,-28.3203125,-51.26953125
2,1746312949160.0625,-43.9453125,-28.80859375,-34.66796875,-53.22265625
3,1746312949163.9688,-49.8046875,-31.25,-36.62109375,-38.57421875
4,1746312949167.875,-46.38671875,-37.59765625,-29.296875,-49.31640625
5,1746312949171.7812,-19.04296875,-38.57421875,-29.78515625,-64.453125
6,1746312949175.6875,-30.2734375,-27.34375,-29.78515625,-59.5703125
7,1746312949179.5938,-42.96875,-23.4375,-31.25,-50.29296875
8,1746312949183.5,-25.87890625,-31.25,-35.15625,-46.875
9,1746312949187.4062,-38.0859375,-32.71484375,-35.64453125,-52.734375
10,1746312949191.3125,-32.2265625,-31.25,-31.73828125,-46.875
11,1746312949195.2188,-28.80859375,-30.76171875,-34.1796875,-46.38671875
0,1746312949199.125,-13.671875,-32.2265625,-35.15625,-53.7109375
1,1746312949203.0312,-28.80859375,-35.64453125,-23.4375,-34.1796875
2,1746312949206.9375,-71.2890625,-28.3203125,-23.92578125,-31.73828125
3,1746312949210.8438,-26.85546875,-23.4375,-29.78515625,-55.6640625
4,1746312949214.75,-20.5078125,-27.83203125,-26.85546875,-57.12890625
5,1746312949218.6562,-37.109375,-22.4609375,-26.3671875,-57.12890625
6,1746312949222.5625,-29.78515625,-23.92578125,-32.71484375,-42.48046875
7,1746312949226.4688,-41.9921875,-30.76171875,-31.25,-37.109375
8,1746312949230.375,-28.80859375,-23.92578125,-29.78515625,-62.01171875
9,1746312949234.2812,-13.671875,-21.97265625,-32.2265625,-53.7109375
10,1746312949238.1875,-18.06640625,-23.4375,-34.1796875,-42.48046875
11,1746312949242.0938,-24.90234375,-17.578125,-35.15625,-48.33984375
0,1746312949246,-27.34375,-19.04296875,-34.1796875,-62.01171875
1,1746312949249.9062,-42.48046875,-26.85546875,-33.69140625,-66.89453125
2,1746312949253.8125,-33.69140625,-21.484375,-33.203125,-50.78125
3,1746312949257.7188,-7.8125,-22.4609375,-27.83203125,-46.875
4,1746312949261.625,-27.34375,-31.25,-25.87890625,-46.875
5,1746312949265.5312,-17.578125,-28.3203125,-27.83203125,-35.15625
6,1746312949269.4375,-12.20703125,-30.2734375,-29.296875,-36.62109375
7,1746312949273.3438,-34.66796875,-33.69140625,-29.78515625,-52.734375
8,1746312949277.25,-36.1328125,-29.296875,-32.2265625,-74.21875
9,1746312949281.1562,-33.69140625,-27.83203125,-34.1796875,-62.01171875
10,1746312949285.0625,-31.73828125,-29.296875,-32.2265625,-43.9453125
11,1746312949288.9688,-15.625,-27.34375,-30.2734375,-52.734375
0,1746312949292.875,-43.45703125,-33.69140625,-30.2734375,-59.5703125
1,1746312949296.7812,-27.83203125,-35.64453125,-33.69140625,-51.7578125
2,1746312949300.6875,1.46484375,-30.2734375,-30.2734375,-34.1796875
3,1746312949304.5938,-41.50390625,-39.0625,-26.3671875,-33.203125
4,1746312949308.5,-34.66796875,-53.22265625,-21.97265625,-57.12890625
5,1746312949312.4062,-31.73828125,-33.69140625,-20.99609375,-62.01171875
6,1746312949316.3125,-30.76171875,-15.13671875,-25.87890625,-46.38671875
7,1746312949320.2188,-17.08984375,-27.34375,-24.90234375,-48.33984375
8,1746312949324.125,-32.2265625,-32.71484375,-27.34375,-64.453125
9,1746312949328.0312,-31.25,-25.87890625,-31.73828125,-71.2890625
10,1746312949331.9375,-17.08984375,-20.99609375,-28.80859375,-55.6640625
11,1746312949335.8438,-18.06640625,-26.3671875,-27.34375,-48.33984375
0,1746312949339.75,-11.23046875,-29.296875,-32.2265625,-59.08203125
1,1746312949343.6562,-37.109375,-32.2265625,-33.203125,-67.87109375
2,1746312949347.5625,-38.0859375,-37.109375,-29.78515625,-72.265625
3,1746312949351.4688,-11.23046875,-37.59765625,-27.83203125,-55.17578125
4,1746312949355.375,-41.50390625,-41.9921875,-27.34375,-50.29296875
5,1746312949359.2812,-38.57421875,-34.66796875,-31.25,-57.6171875
6,1746312949363.1875,-2.9296875,-31.25,-36.62109375,-51.26953125
7,1746312949367.0938,-19.04296875,-35.64453125,-43.45703125,-45.8984375
8,1746312949371,-33.203125,-31.73828125,-52.734375,-49.31640625
9,1746312949374.9062,-26.3671875,-26.85546875,-39.0625,-42.96875
10,1746312949378.8125,-19.53125,-31.25,-26.3671875,-50.29296875
11,1746312949382.7188,-15.625,-35.64453125,-32.71484375,-41.015625
0,1746312949386.625,-14.6484375,-36.62109375,-38.57421875,19.53125
1,1746312949390.5312,-16.11328125,-30.2734375,-38.0859375,-20.99609375
2,1746312949394.4375,-25.390625,-27.34375,-40.0390625,-69.82421875
3,1746312949398.3438,-26.3671875,-37.59765625,-35.64453125,-65.91796875
4,1746312949402.25,-14.6484375,-38.57421875,-30.2734375,-73.2421875
5,1746312949406.1562,-9.765625,-22.94921875,-34.1796875,-56.15234375
6,1746312949410.0625,-12.6953125,-20.99609375,-41.50390625,-49.8046875
7,1746312949413.9688,-7.32421875,-30.76171875,-28.3203125,-46.38671875
8,1746312949417.875,-2.9296875,-35.15625,-12.20703125,-50.78125
9,1746312949421.7812,-5.859375,-31.73828125,-20.01953125,-44.921875
10,1746312949425.6875,-23.92578125,-18.5546875,-21.484375,-30.2734375
11,1746312949429.5938,-16.6015625,-23.4375,-19.53125,-29.78515625
0,1746312949433.5,3.90625,-41.015625,-20.5078125,-29.78515625
1,1746312949437.4062,0.9765625,-51.7578125,-26.3671875,-14.6484375
2,1746312949441.3125,-6.34765625,-58.59375,-26.85546875,-20.5078125
3,1746312949445.2188,-22.4609375,-64.453125,-30.76171875,-53.7109375
4,1746312949449.125,-9.27734375,-63.4765625,-36.1328125,-74.70703125
5,1746312949453.0312,3.90625,-63.4765625,-31.25,-44.921875
6,1746312949456.9375,-13.671875,-68.84765625,-29.78515625,-51.26953125
7,1746312949460.8438,-4.39453125,-64.94140625,-26.85546875,-62.5
8,1746312949464.75,5.37109375,-58.59375,-26.85546875,-54.6875
9,1746312949468.6562,6.8359375,-56.640625,-30.76171875,-55.6640625
10,1746312949472.5625,3.90625,-60.05859375,-27.34375,-65.91796875
11,1746312949476.4688,-27.34375,-60.05859375,-26.3671875,-69.82421875
0,1746312949480.375,-30.76171875,-54.6875,-27.83203125,-32.2265625
1,1746312949484.2812,-17.578125,-53.22265625,-30.2734375,-27.34375
2,1746312949488.1875,-15.13671875,-53.7109375,-28.80859375,-18.06640625
3,1746312949492.0938,-21.97265625,-53.22265625,-22.4609375,-14.16015625
4,1746312949496,-18.5546875,-53.7109375,-29.296875,-19.53125
5,1746312949499.9062,-4.8828125,-50.78125,-36.62109375,-45.8984375
6,1746312949503.8125,0,-48.33984375,-30.2734375,-51.7578125
7,1746312949507.7188,-8.7890625,-47.8515625,-29.78515625,-31.73828125
8,1746312949511.625,-25.87890625,-44.43359375,-37.59765625,-61.5234375
9,1746312949515.5312,-12.20703125,-42.48046875,-32.71484375,-41.50390625
10,1746312949519.4375,-12.20703125,-40.52734375,-25.390625,-24.4140625
11,1746312949523.3438,-21.484375,-41.9921875,-29.296875,-42.96875
0,1746312949527.25,-8.30078125,-33.203125,-34.1796875,-20.5078125
1,1746312949531.1562,-4.8828125,-27.83203125,-35.15625,-28.80859375
2,1746312949535.0625,-8.30078125,-26.3671875,-34.66796875,-35.64453125
3,1746312949538.9688,-23.92578125,-21.484375,-30.2734375,-22.94921875
4,1746312949542.875,-23.4375,-28.80859375,-19.53125,-45.8984375
5,1746312949546.7812,-9.27734375,-25.87890625,-19.04296875,-13.671875
6,1746312949550.6875,-6.8359375,-22.94921875,-23.92578125,-1.46484375
7,1746312949554.5938,-12.6953125,-25.87890625,-28.80859375,-27.34375
8,1746312949558.5,-33.69140625,-22.94921875,-34.1796875,-22.4609375
9,1746312949562.4062,-22.94921875,-24.90234375,-33.203125,-48.33984375
10,1746312949566.3125,-25.390625,-29.296875,-29.296875,-44.43359375
11,1746312949570.2188,-41.9921875,-29.78515625,-27.83203125,-22.94921875
0,1746312949574.125,-34.1796875,-30.76171875,-28.80859375,-31.73828125
1,1746312949578.0312,-29.78515625,-30.76171875,-29.78515625,-46.38671875
2,1746312949581.9375,-20.5078125,-30.2734375,-29.296875,-8.30078125
3,1746312949585.8438,-28.3203125,-29.296875,-27.83203125,11.71875
4,1746312949589.75,-36.1328125,-32.2265625,-25.87890625,-0.48828125
5,1746312949593.6562,-28.80859375,-35.64453125,-26.85546875,-34.66796875
6,1746312949597.5625,-7.32421875,-32.71484375,-28.80859375,-34.1796875
7,1746312949601.4688,-0.9765625,-31.73828125,-24.4140625,17.578125
8,1746312949605.375,-13.671875,-31.25,-25.87890625,-11.23046875
9,1746312949609.2812,-11.71875,-30.76171875,-28.80859375,-37.109375
10,1746312949613.1875,-17.08984375,-32.2265625,-30.76171875,-41.9921875
11,1746312949617.0938,-12.6953125,-31.73828125,-28.3203125,-20.99609375
0,1746312949621,-9.27734375,-35.15625,-26.3671875,14.16015625
1,1746312949624.9062,-20.99609375,-35.64453125,-33.69140625,-29.78515625
2,1746312949628.8125,-19.04296875,-26.3671875,-33.69140625,-40.52734375
3,1746312949632.7188,-14.6484375,-23.92578125,-30.76171875,-29.296875
4,1746312949636.625,-22.94921875,-29.296875,-27.83203125,-34.1796875
5,1746312949640.5312,-7.32421875,-30.76171875,-26.3671875,-24.90234375
6,1746312949644.4375,-24.4140625,-34.66796875,-28.3203125,-18.5546875
7,1746312949648.3438,-40.0390625,-39.0625,-28.80859375,14.16015625
8,1746312949652.25,-19.04296875,-35.15625,-30.2734375,15.625
9,1746312949656.1562,-23.92578125,-35.15625,-33.69140625,-24.4140625
10,1746312949660.0625,-19.53125,-40.52734375,-36.1328125,-50.29296875
11,1746312949663.9688,-13.18359375,-37.59765625,-31.73828125,-42.48046875
0,1746312949667.875,-16.6015625,-31.73828125,-25.390625,-16.6015625
1,1746312949671.7812,-10.7421875,-27.34375,-22.4609375,-20.99609375
2,1746312949675.6875,-3.90625,-28.80859375,-25.87890625,-30.76171875
3,1746312949679.5938,5.37109375,-27.83203125,-27.83203125,-23.92578125
4,1746312949683.5,-2.9296875,-20.01953125,-25.390625,-13.671875
5,1746312949687.4062,-23.92578125,-22.94921875,-25.390625,-14.6484375
6,1746312949691.3125,-21.97265625,-26.85546875,-27.34375,-16.6015625
7,1746312949695.2188,-18.5546875,-26.3671875,-31.73828125,-26.85546875
8,1746312949699.125,-24.90234375,-27.83203125,-29.296875,-26.85546875
9,1746312949703.0312,-26.85546875,-31.25,-32.2265625,-5.37109375
10,1746312949706.9375,-26.3671875,-32.2265625,-36.62109375,-18.06640625
11,1746312949710.8438,-33.69140625,-27.83203125,-28.80859375,-49.31640625
0,1746312949714.75,-18.06640625,-26.85546875,-28.80859375,-35.64453125
1,1746312949718.6562,-8.30078125,-31.73828125,-30.76171875,-17.578125
2,1746312949722.5625,-21.484375,-24.90234375,-31.25,-31.25
3,1746312949726.4688,-13.671875,-19.53125,-30.2734375,-43.9453125
4,1746312949730.375,-6.34765625,-21.97265625,-23.92578125,-35.15625
5,1746312949734.2812,17.08984375,-17.08984375,-21.97265625,-16.11328125
6,1746312949738.1875,-10.7421875,-21.97265625,-31.73828125,-26.85546875
7,1746312949742.0938,-28.3203125,-31.25,-36.62109375,-53.7109375
8,1746312949746,-10.25390625,-29.78515625,-23.92578125,-37.59765625
9,1746312949749.9062,-9.27734375,-26.3671875,-27.83203125,-23.92578125
10,1746312949753.8125,-3.41796875,-33.203125,-35.64453125,-54.19921875
11,1746312949757.7188,-24.90234375,-33.69140625,-33.203125,-60.05859375
0,1746312949761.625,-38.0859375,-27.34375,-35.64453125,-52.24609375
1,1746312949765.5312,-30.76171875,-30.2734375,-35.15625,-54.19921875
2,1746312949769.4375,-22.94921875,-29.78515625,-32.71484375,-26.85546875
3,1746312949773.3438,-32.71484375,-28.80859375,-36.62109375,-33.203125
4,1746312949777.25,-13.18359375,-20.99609375,-47.8515625,-66.40625
5,1746312949781.1562,19.04296875,-20.5078125,-37.59765625,-46.875
6,1746312949785.0625,-4.39453125,-38.0859375,-26.3671875,-27.83203125
7,1746312949788.9688,-44.921875,-39.0625,-31.25,-38.57421875
8,1746312949792.875,-52.734375,-33.203125,-30.2734375,-55.6640625
9,1746312949796.7812,-25.87890625,-35.64453125,-31.73828125,-49.8046875
10,1746312949800.6875,-18.06640625,-30.76171875,-32.2265625,-14.6484375
11,1746312949804.5938,-27.34375,-29.78515625,-29.78515625,-10.25390625
0,1746312949808.5,-13.18359375,-34.1796875,-38.0859375,-49.31640625
1,1746312949812.4062,-14.6484375,-37.109375,-41.9921875,-38.0859375
2,1746312949816.3125,-0.9765625,-37.109375,-31.25,-8.30078125
3,1746312949820.2188,-7.8125,-33.69140625,-31.73828125,-19.53125
4,1746312949824.125,-23.4375,-29.78515625,-36.1328125,-41.50390625
5,1746312949828.0312,-14.16015625,-28.80859375,-32.71484375,-38.0859375
6,1746312949831.9375,-9.765625,-33.203125,-36.1328125,-16.6015625
7,1746312949835.8438,-6.8359375,-34.1796875,-40.52734375,-31.73828125
8,1746312949839.75,-23.4375,-37.109375,-33.203125,-46.875
9,1746312949843.6562,-14.16015625,-33.203125,-29.296875,-36.62109375
10,1746312949847.5625,7.8125,-27.34375,-27.34375,-33.69140625
11,1746312949851.4688,-14.16015625,-30.2734375,-24.4140625,-20.01953125
0,1746312949855.375,-23.4375,-31.25,-23.92578125,-21.484375
1,1746312949859.2812,-16.6015625,-22.4609375,-22.94921875,-16.6015625
2,1746312949863.1875,-24.90234375,-21.484375,-27.34375,-12.20703125
3,1746312949867.0938,-26.3671875,-22.94921875,-27.34375,-16.6015625
4,1746312949871,-3.41796875,-18.06640625,-25.87890625,11.71875
5,1746312949874.9062,-8.7890625,-20.01953125,-28.3203125,9.27734375
6,1746312949878.8125,-30.2734375,-25.390625,-31.25,-28.80859375
7,1746312949882.7188,-15.13671875,-26.3671875,-30.76171875,-50.29296875
8,1746312949886.625,-4.39453125,-22.4609375,-29.78515625,-27.83203125
9,1746312949890.5312,-21.97265625,-29.296875,-32.71484375,-20.99609375
10,1746312949894.4375,-49.31640625,-32.71484375,-29.296875,-33.203125
11,1746312949898.3438,-25.390625,-27.34375,-25.87890625,-30.76171875
0,1746312949902.25,-6.34765625,-22.94921875,-28.3203125,-6.8359375
1,1746312949906.1562,-15.13671875,-23.4375,-29.78515625,3.41796875
2,1746312949910.0625,-19.53125,-31.73828125,-30.2734375,-44.43359375
3,1746312949913.9688,-39.55078125,-30.2734375,-28.3203125,-47.8515625
4,1746312949917.875,-32.71484375,-29.296875,-26.85546875,-21.484375
5,1746312949921.7812,-25.87890625,-27.83203125,-32.71484375,-23.92578125
6,1746312949925.6875,-33.69140625,-29.296875,-38.0859375,-48.828125
7,1746312949929.5938,-24.4140625,-26.85546875,-32.2265625,-46.875
8,1746312949933.5,-31.73828125,-21.484375,-33.203125,-30.76171875
9,1746312949937.4062,-27.34375,-25.390625,-38.0859375,-25.390625
10,1746312949941.3125,-14.16015625,-31.25,-33.203125,-22.4609375
11,1746312949945.2188,-26.85546875,-35.15625,-35.64453125,-37.59765625
0,1746312949949.125,-29.78515625,-26.85546875,-41.50390625,-28.80859375
1,1746312949953.0312,-22.94921875,-26.3671875,-32.71484375,-35.64453125
2,1746312949956.9375,-20.5078125,-36.62109375,-24.90234375,-36.62109375
3,1746312949960.8438,-6.8359375,-37.59765625,-30.2734375,-27.83203125
4,1746312949964.75,-28.3203125,-39.0625,-30.2734375,-23.92578125
5,1746312949968.6562,-30.76171875,-32.71484375,-33.203125,-9.27734375
6,1746312949972.5625,-19.53125,-30.76171875,-41.50390625,-23.92578125
7,1746312949976.4688,-37.59765625,-36.62109375,-38.0859375,-37.59765625
8,1746312949980.375,-45.41015625,-39.55078125,-35.64453125,-34.1796875
9,1746312949984.2812,-41.015625,-35.64453125,-38.57421875,-53.22265625
10,1746312949988.1875,-33.203125,-32.2265625,-36.62109375,-50.78125
11,1746312949992.0938,-38.57421875,-32.71484375,-32.71484375,-29.296875
0,1746312949996,-36.62109375,-31.73828125,-36.1328125,-29.296875
1,1746312949999.9062,-32.71484375,-35.64453125,-37.109375,-35.15625
2,1746312950003.8125,-34.66796875,-36.62109375,-38.0859375,-35.64453125
3,1746312950007.7188,-30.76171875,-34.66796875,-41.50390625,-44.43359375
4,1746312950011.625,-34.1796875,-34.66796875,-33.69140625,-50.78125
5,1746312950015.5312,-46.38671875,-33.69140625,-28.3203125,-53.22265625
6,1746312950019.4375,-62.5,-37.109375,-36.62109375,-54.6875
7,1746312950023.3438,-70.80078125,-33.203125,-39.0625,-51.7578125
8,1746312950027.25,-51.7578125,-27.34375,-37.59765625,-47.8515625
9,1746312950031.1562,-40.52734375,-27.83203125,-37.59765625,-47.36328125
10,1746312950035.0625,-48.828125,-23.4375,-35.64453125,-39.55078125
11,1746312950038.9688,-34.66796875,-22.94921875,-33.203125,-37.59765625
0,1746312950042.875,-30.76171875,-25.390625,-33.69140625,-47.36328125
1,1746312950046.7812,-40.0390625,-22.4609375,-36.62109375,-40.0390625
2,1746312950050.6875,-33.203125,-18.06640625,-31.73828125,-28.80859375
3,1746312950054.5938,-21.484375,-17.08984375,-31.73828125,-31.73828125
4,1746312950058.5,-21.484375,-20.99609375,-31.25,-34.1796875
5,1746312950062.4062,-9.765625,-22.4609375,-31.73828125,-21.97265625
6,1746312950066.3125,-1.953125,-22.94921875,-33.69140625,-35.64453125
7,1746312950070.2188,-23.92578125,-23.4375,-32.71484375,-47.8515625
8,1746312950074.125,-30.2734375,-21.97265625,-32.2265625,-52.24609375
9,1746312950078.0312,-33.69140625,-20.5078125,-33.69140625,-68.359375
10,1746312950081.9375,-35.64453125,-22.4609375,-37.109375,-36.1328125
11,1746312950085.8438,-25.87890625,-27.34375,-37.109375,-14.16015625
0,1746312950089.75,-28.3203125,-29.296875,-41.50390625,-38.0859375
1,1746312950093.6562,-32.71484375,-33.69140625,-36.1328125,-55.17578125
2,1746312950097.5625,-29.296875,-28.3203125,-30.2734375,-59.5703125
3,1746312950101.4688,-34.1796875,-19.53125,-31.73828125,-42.96875
4,1746312950105.375,-38.57421875,-22.4609375,-35.15625,-32.2265625
5,1746312950109.2812,-35.64453125,-29.296875,-36.62109375,-25.87890625
6,1746312950113.1875,-27.34375,-33.203125,-34.66796875,-19.04296875
7,1746312950117.0938,-13.18359375,-29.296875,-36.1328125,-17.578125
8,1746312950121,-13.18359375,-23.92578125,-36.62109375,-41.015625
9,1746312950124.9062,-24.90234375,-26.3671875,-35.64453125,-73.2421875
10,1746312950128.8125,-10.25390625,-25.390625,-35.64453125,-71.2890625
11,1746312950132.7188,-0.48828125,-20.5078125,-32.2265625,-53.7109375
0,1746312950136.625,9.27734375,-20.01953125,-32.71484375,-42.48046875
1,1746312950140.5312,-16.6015625,-21.97265625,-33.69140625,-33.203125
2,1746312950144.4375,-27.34375,-23.92578125,-30.2734375,-35.15625
3,1746312950148.3438,-5.859375,-24.90234375,-34.66796875,-41.015625
4,1746312950152.25,-9.765625,-26.85546875,-38.57421875,-29.296875
5,1746312950156.1562,-33.69140625,-26.85546875,-33.203125,-31.25
6,1746312950160.0625,-41.50390625,-30.76171875,-36.1328125,-47.8515625
7,1746312950163.9688,-18.5546875,-31.25,-33.69140625,-29.78515625
8,1746312950167.875,-25.87890625,-25.87890625,-31.73828125,-38.0859375
9,1746312950171.7812,-31.73828125,-27.34375,-37.59765625,-57.6171875
10,1746312950175.6875,-29.296875,-30.76171875,-40.0390625,-48.33984375
11,1746312950179.5938,-27.83203125,-31.25,-41.50390625,-51.7578125
0,1746312950183.5,-22.94921875,-29.296875,-40.52734375,-52.734375
1,1746312950187.4062,-23.92578125,-28.3203125,-35.64453125,-40.0390625
2,1746312950191.3125,-20.99609375,-23.4375,-38.57421875,-42.48046875
3,1746312950195.2188,-9.765625,-26.3671875,-39.55078125,-43.45703125
4,1746312950199.125,-19.04296875,-32.71484375,-35.64453125,-29.78515625
5,1746312950203.0312,-32.71484375,-26.85546875,-39.0625,-37.59765625
6,1746312950206.9375,-31.73828125,-27.83203125,-47.36328125,-37.59765625
7,1746312950210.8438,-32.71484375,-31.73828125,-48.828125,-46.875
8,1746312950214.75,-29.78515625,-30.76171875,-41.015625,-61.03515625
9,1746312950218.6562,-28.3203125,-29.296875,-32.71484375,-47.36328125
10,1746312950222.5625,-36.1328125,-28.80859375,-28.80859375,-61.03515625
11,1746312950226.4688,-30.76171875,-30.76171875,-23.92578125,-61.5234375
0,1746312950230.375,-32.2265625,-32.71484375,-20.01953125,-49.8046875
1,1746312950234.2812,-40.0390625,-34.66796875,-24.90234375,-35.15625
2,1746312950238.1875,-37.59765625,-32.71484375,-29.78515625,-20.5078125
3,1746312950242.0938,-38.57421875,-32.2265625,-32.2265625,-34.66796875
4,1746312950246,-32.71484375,-34.1796875,-38.0859375,-50.29296875
5,1746312950249.9062,-18.5546875,-29.78515625,-39.55078125,-39.0625
6,1746312950253.8125,-34.66796875,-29.78515625,-37.109375,-16.11328125
7,1746312950257.7188,-45.41015625,-34.66796875,-39.55078125,-34.1796875
8,1746312950261.625,-21.484375,-33.69140625,-37.59765625,-64.94140625
9,1746312950265.5312,-28.80859375,-29.78515625,-39.55078125,-43.9453125
10,1746312950269.4375,-28.80859375,-32.71484375,-39.55078125,-23.92578125
11,1746312950273.3438,-28.80859375,-36.1328125,-36.62109375,-35.15625
0,1746312950277.25,-34.1796875,-31.73828125,-31.73828125,-46.38671875
1,1746312950281.1562,-28.80859375,-34.1796875,-27.34375,-44.921875
2,1746312950285.0625,-20.99609375,-33.203125,-30.76171875,-33.203125
3,1746312950288.9688,-15.13671875,-32.2265625,-34.1796875,-35.64453125
4,1746312950292.875,-44.43359375,-36.1328125,-35.64453125,-45.41015625
5,1746312950296.7812,-60.05859375,-39.55078125,-40.0390625,-27.34375
6,1746312950300.6875,-36.62109375,-40.0390625,-40.52734375,-29.78515625
7,1746312950304.5938,-33.69140625,-35.15625,-36.62109375,-65.91796875
8,1746312950308.5,-46.38671875,-33.69140625,-31.73828125,-51.26953125
9,1746312950312.4062,-42.96875,-37.109375,-27.83203125,-45.41015625
10,1746312950316.3125,-42.48046875,-33.69140625,-26.85546875,-57.6171875
11,1746312950320.2188,-48.33984375,-34.1796875,-29.78515625,-70.3125
0,1746312950324.125,-41.015625,-35.15625,-32.2265625,-75.68359375
1,1746312950328.0312,-34.1796875,-32.71484375,-38.0859375,-62.98828125
2,1746312950331.9375,-48.33984375,-33.203125,-34.66796875,-49.31640625
3,1746312950335.8438,-38.0859375,-34.66796875,-30.2734375,-41.50390625
4,1746312950339.75,-38.0859375,-33.203125,-30.76171875,-48.828125
5,1746312950343.6562,-51.7578125,-33.69140625,-26.3671875,-41.50390625
6,1746312950347.5625,-37.59765625,-34.66796875,-23.4375,-27.34375
7,1746312950351.4688,-36.1328125,-30.2734375,-31.25,-39.55078125
8,1746312950355.375,-35.64453125,-26.85546875,-39.55078125,-62.5
9,1746312950359.2812,-26.3671875,-28.80859375,-35.64453125,-55.17578125
10,1746312950363.1875,-27.34375,-26.85546875,-29.296875,-37.59765625
11,1746312950367.0938,-1.953125,-22.4609375,-27.34375,-34.1796875
0,1746312950371,-9.765625,-24.90234375,-26.85546875,-19.04296875
1,1746312950374.9062,-36.1328125,-24.90234375,-28.80859375,-23.92578125
2,1746312950378.8125,-22.94921875,-28.3203125,-34.1796875,-55.17578125
3,1746312950382.7188,-12.6953125,-32.71484375,-33.69140625,-57.6171875
4,1746312950386.625,-21.97265625,-26.3671875,-36.62109375,-30.2734375
5,1746312950390.5312,-28.3203125,-24.4140625,-36.62109375,-23.4375
6,1746312950394.4375,-27.34375,-31.25,-33.69140625,-33.69140625
7,1746312950398.3438,-21.484375,-32.71484375,-36.62109375,-53.22265625
8,1746312950402.25,-30.76171875,-27.34375,-35.15625,-47.36328125
9,1746312950406.1562,-37.59765625,-33.203125,-32.2265625,-24.4140625
10,1746312950410.0625,-28.3203125,-37.109375,-36.1328125,-37.59765625
11,1746312950413.9688,-22.4609375,-38.57421875,-34.66796875,-48.828125
0,1746312950417.875,-15.625,-38.57421875,-29.296875,-33.69140625
1,1746312950421.7812,-12.6953125,-37.59765625,-32.71484375,-23.4375
2,1746312950425.6875,-13.671875,-35.15625,-36.62109375,-40.0390625
3,1746312950429.5938,-13.671875,-32.2265625,-34.66796875,-39.0625
4,1746312950433.5,-20.5078125,-29.296875,-37.59765625,-24.90234375
5,1746312950437.4062,-38.57421875,-25.390625,-33.203125,-23.92578125
6,1746312950441.3125,-43.9453125,-28.80859375,-26.85546875,-20.5078125
7,1746312950445.2188,-35.15625,-29.78515625,-32.2265625,-2.9296875
8,1746312950449.125,-13.18359375,-26.3671875,-31.73828125,-15.625
9,1746312950453.0312,-33.69140625,-24.4140625,-26.3671875,-26.3671875
10,1746312950456.9375,-46.38671875,-22.4609375,-29.78515625,-32.71484375
11,1746312950460.8438,-21.484375,-24.90234375,-35.64453125,-48.33984375
0,1746312950464.75,-28.80859375,-27.34375,-35.15625,-40.0390625
1,1746312950468.6562,-39.0625,-31.25,-34.1796875,-23.4375
2,1746312950472.5625,-27.83203125,-37.109375,-34.66796875,-38.0859375
3,1746312950476.4688,-20.01953125,-34.66796875,-36.1328125,-48.828125
4,1746312950480.375,-13.671875,-31.73828125,-38.0859375,-26.3671875
5,1746312950484.2812,-2.9296875,-31.25,-35.15625,-27.83203125
6,1746312950488.1875,-26.85546875,-37.109375,-35.15625,-21.97265625
7,1746312950492.0938,-39.0625,-37.59765625,-35.64453125,-25.87890625
8,1746312950496,-23.92578125,-30.76171875,-35.64453125,-35.64453125
9,1746312950499.9062,-23.92578125,-33.203125,-37.59765625,-26.85546875
10,1746312950503.8125,-20.99609375,-35.64453125,-33.203125,-32.71484375
11,1746312950507.7188,-23.4375,-31.25,-31.73828125,-37.59765625
0,1746312950511.625,-23.4375,-31.73828125,-24.90234375,-32.2265625
1,1746312950515.5312,-19.53125,-40.0390625,-24.4140625,-21.484375
2,1746312950519.4375,-18.5546875,-41.9921875,-28.80859375,-13.18359375
3,1746312950523.3438,-12.6953125,-34.66796875,-25.390625,-30.2734375
4,1746312950527.25,-36.62109375,-30.76171875,-26.3671875,-33.203125
5,1746312950531.1562,-43.45703125,-31.25,-27.83203125,-17.578125
6,1746312950535.0625,-24.90234375,-34.1796875,-27.83203125,-21.97265625
7,1746312950538.9688,-34.1796875,-39.0625,-34.66796875,-31.25
8,1746312950542.875,-32.2265625,-37.109375,-35.64453125,-37.109375
9,1746312950546.7812,-14.16015625,-34.1796875,-32.2265625,-36.62109375
10,1746312950550.6875,-22.94921875,-32.2265625,-28.3203125,-36.1328125
11,1746312950554.5938,-37.109375,-31.25,-28.3203125,-35.64453125
0,1746312950558.5,-32.71484375,-35.64453125,-37.109375,-49.8046875
1,1746312950562.4062,-28.3203125,-32.71484375,-38.57421875,-56.640625
2,1746312950566.3125,-23.4375,-34.66796875,-37.59765625,-42.96875
3,1746312950570.2188,-29.78515625,-36.62109375,-36.62109375,-38.0859375
4,1746312950574.125,-38.0859375,-35.64453125,-35.15625,-45.41015625
5,1746312950578.0312,-47.36328125,-33.69140625,-33.69140625,-45.41015625
6,1746312950581.9375,-48.33984375,-31.73828125,-30.76171875,-38.0859375
7,1746312950585.8438,-40.52734375,-33.203125,-30.76171875,-28.3203125
8,1746312950589.75,-37.109375,-35.64453125,-30.2734375,-29.296875
9,1746312950593.6562,-44.921875,-38.57421875,-29.296875,-28.80859375
10,1746312950597.5625,-36.1328125,-34.1796875,-27.34375,-26.85546875
11,1746312950601.4688,-31.73828125,-26.3671875,-27.83203125,-38.0859375
0,1746312950605.375,-23.92578125,-25.390625,-31.73828125,-37.59765625
1,1746312950609.2812,-20.01953125,-27.34375,-29.296875,-24.4140625
2,1746312950613.1875,-39.0625,-26.85546875,-27.83203125,-24.4140625
3,1746312950617.0938,-25.87890625,-31.73828125,-27.34375,-34.66796875
4,1746312950621,-17.08984375,-33.203125,-31.25,-45.41015625
5,1746312950624.9062,-39.55078125,-27.34375,-31.73828125,-52.734375
6,1746312950628.8125,-38.0859375,-25.87890625,-34.1796875,-53.7109375
7,1746312950632.7188,-40.0390625,-26.85546875,-36.62109375,-40.52734375
8,1746312950636.625,-44.43359375,-36.62109375,-33.69140625,-24.4140625
9,1746312950640.5312,-51.7578125,-47.36328125,-39.0625,-47.8515625
10,1746312950644.4375,-58.59375,-51.26953125,-37.59765625,-69.82421875
11,1746312950648.3438,-45.8984375,-46.875,-29.296875,-52.734375
0,1746312950652.25,-46.875,-43.45703125,-35.15625,-30.76171875
1,1746312950656.1562,-52.734375,-40.52734375,-33.69140625,-44.43359375
2,1746312950660.0625,-47.36328125,-32.2265625,-32.2265625,-53.22265625
3,1746312950663.9688,-43.9453125,-34.66796875,-37.59765625,-32.71484375
4,1746312950667.875,-23.4375,-36.1328125,-32.2265625,-30.2734375
5,1746312950671.7812,-27.34375,-24.90234375,-28.3203125,-43.9453125
6,1746312950675.6875,-30.76171875,-21.484375,-28.3203125,-33.69140625
7,1746312950679.5938,-24.90234375,-25.390625,-29.296875,-30.76171875
8,1746312950683.5,-22.4609375,-30.76171875,-30.2734375,-35.64453125
9,1746312950687.4062,-21.484375,-33.203125,-29.296875,-20.99609375
10,1746312950691.3125,-41.015625,-26.85546875,-29.78515625,-30.76171875
11,1746312950695.2188,-40.52734375,-25.87890625,-30.76171875,-48.33984375
0,1746312950699.125,-44.921875,-31.25,-34.1796875,-30.2734375
1,1746312950703.0312,-48.33984375,-32.71484375,-34.1796875,-10.25390625
2,1746312950706.9375,-42.48046875,-28.80859375,-23.92578125,-20.99609375
3,1746312950710.8438,-48.828125,-23.92578125,-22.94921875,-41.50390625
4,1746312950714.75,-49.8046875,-25.87890625,-23.92578125,-37.59765625
5,1746312950718.6562,-24.4140625,-25.390625,-19.04296875,-23.4375
6,1746312950722.5625,-13.18359375,-27.34375,-23.4375,-23.4375
7,1746312950726.4688,-30.76171875,-35.64453125,-33.69140625,-51.7578125
8,1746312950730.375,-43.45703125,-39.55078125,-38.0859375,-62.5
9,1746312950734.2812,-50.29296875,-36.1328125,-32.2265625,-38.0859375
10,1746312950738.1875,-45.41015625,-34.1796875,-33.69140625,-28.3203125
11,1746312950742.0938,-48.33984375,-37.109375,-40.0390625,-35.15625
0,1746312950746,-46.875,-28.80859375,-40.52734375,-50.29296875
1,1746312950749.9062,-34.66796875,-23.4375,-46.875,-28.3203125
2,1746312950753.8125,-34.66796875,-28.3203125,-44.43359375,-31.25
3,1746312950757.7188,-30.76171875,-33.69140625,-36.62109375,-58.10546875
4,1746312950761.625,-34.1796875,-40.52734375,-32.2265625,-58.59375
5,1746312950765.5312,-38.57421875,-46.38671875,-32.2265625,-43.45703125
6,1746312950769.4375,-20.5078125,-65.4296875,-31.73828125,-31.25
7,1746312950773.3438,-30.76171875,-71.2890625,-25.87890625,-40.0390625
8,1746312950777.25,-42.96875,-38.0859375,-29.78515625,-38.57421875
9,1746312950781.1562,-26.85546875,-1.46484375,-36.62109375,-44.43359375
10,1746312950785.0625,-36.1328125,9.765625,-40.0390625,-43.9453125
11,1746312950788.9688,-48.33984375,-1.953125,-37.109375,-22.94921875
0,1746312950792.875,-48.33984375,-15.13671875,-35.15625,-29.78515625
1,1746312950796.7812,-41.50390625,-20.01953125,-41.015625,-25.87890625
2,1746312950800.6875,-17.08984375,-29.78515625,-39.55078125,-15.625
3,1746312950804.5938,-18.5546875,-41.015625,-32.71484375,-33.203125
4,1746312950808.5,-38.0859375,-44.921875,-26.3671875,-43.9453125
5,1746312950812.4062,-26.85546875,-50.29296875,-28.80859375,-19.04296875
6,1746312950816.3125,-6.8359375,-36.62109375,-34.66796875,-18.06640625
7,1746312950820.2188,-21.97265625,-10.25390625,-40.0390625,-21.97265625
8,1746312950824.125,-33.203125,-19.04296875,-47.8515625,-4.8828125
9,1746312950828.0312,-20.99609375,-32.71484375,-45.41015625,-31.25
10,1746312950831.9375,-28.3203125,-15.13671875,-40.0390625,-74.21875
11,1746312950835.8438,-28.80859375,-7.32421875,-28.3203125,-58.10546875
0,1746312950839.75,-40.52734375,-15.625,-26.85546875,-28.3203125
1,1746312950843.6562,-55.6640625,-25.390625,-33.203125,-35.64453125
2,1746312950847.5625,-46.875,-34.1796875,-36.62109375,-36.1328125
3,1746312950851.4688,-28.80859375,-26.3671875,-35.15625,-20.99609375
4,1746312950855.375,-35.64453125,-15.625,-36.62109375,-16.6015625
5,1746312950859.2812,-55.6640625,-21.484375,-38.0859375,-31.25
6,1746312950863.1875,-30.2734375,-39.55078125,-33.69140625,-28.80859375
7,1746312950867.0938,-7.8125,-38.57421875,-32.71484375,-27.83203125
8,1746312950871,-14.6484375,-18.06640625,-33.203125,-21.484375
9,1746312950874.9062,-17.578125,-16.6015625,-39.0625,-29.296875
10,1746312950878.8125,-10.25390625,-19.53125,-31.25,-57.12890625
11,1746312950882.7188,-20.99609375,-26.3671875,-17.578125,-34.66796875
0,1746312950886.625,-12.6953125,-67.3828125,-16.6015625,-11.23046875
1,1746312950890.5312,-37.59765625,-65.4296875,-20.99609375,-41.9921875
2,1746312950894.4375,-65.4296875,-16.6015625,-40.52734375,-27.34375
3,1746312950898.3438,-39.55078125,-3.41796875,-47.36328125,38.57421875
4,1746312950902.25,-31.25,-20.5078125,-49.31640625,-9.765625
5,1746312950906.1562,-22.94921875,-24.4140625,-33.69140625,-58.10546875
6,1746312950910.0625,-29.296875,1.46484375,-47.8515625,-35.64453125
7,1746312950913.9688,-15.625,12.6953125,-87.40234375,-44.921875
8,1746312950917.875,-7.8125,17.08984375,-42.96875,-56.640625
9,1746312950921.7812,-24.4140625,-26.85546875,11.71875,-59.5703125
10,1746312950925.6875,-24.4140625,-95.21484375,18.5546875,-35.64453125
11,1746312950929.5938,-26.85546875,-55.6640625,-22.94921875,-35.64453125
0,1746312950933.5,-27.34375,-38.57421875,-32.71484375,-30.2734375
1,1746312950937.4062,-35.15625,-65.91796875,-8.7890625,9.27734375
2,1746312950941.3125,-67.3828125,-8.7890625,-48.33984375,-17.08984375
3,1746312950945.2188,-24.4140625,-44.43359375,-54.6875,9.765625
4,1746312950949.125,39.55078125,-229.00390625,-15.625,52.24609375
5,1746312950953.0312,-8.30078125,-185.05859375,-0.48828125,-5.859375
6,1746312950956.9375,-82.03125,53.22265625,7.32421875,-55.6640625
7,1746312950960.8438,-115.72265625,74.70703125,-46.38671875,-59.08203125
8,1746312950964.75,-79.1015625,-55.17578125,-58.59375,-26.85546875
9,1746312950968.6562,-69.3359375,-105.46875,-42.48046875,-47.8515625
10,1746312950972.5625,-101.07421875,-71.77734375,-19.53125,-114.2578125
11,1746312950976.4688,-80.078125,-119.62890625,7.8125,-111.81640625
0,1746312950980.375,-134.27734375,-122.55859375,-25.87890625,-119.140625
1,1746312950984.2812,-176.26953125,0.48828125,-10.7421875,-149.90234375
2,1746312950988.1875,-191.89453125,1.953125,-17.578125,-174.31640625
3,1746312950992.0938,-229.98046875,-55.6640625,-43.45703125,-191.89453125
4,1746312950996,-165.0390625,-169.43359375,9.27734375,-161.1328125
5,1746312950999.9062,-169.43359375,-305.6640625,28.3203125,-177.24609375
6,1746312951003.8125,-159.1796875,-328.125,9.27734375,-180.6640625
7,1746312951007.7188,-104.4921875,-371.09375,5.859375,-130.859375
8,1746312951011.625,-175.29296875,-275.87890625,-4.8828125,-173.828125
9,1746312951015.5312,-207.51953125,-207.51953125,-8.7890625,-180.17578125
10,1746312951019.4375,-188.96484375,-252.44140625,-2.9296875,-140.625
11,1746312951023.3438,-154.296875,-250,-11.71875,-190.4296875
0,1746312951027.25,-115.234375,-178.22265625,-32.71484375,-185.546875
1,1746312951031.1562,-112.79296875,-151.3671875,-49.8046875,-138.18359375
2,1746312951035.0625,-133.30078125,-187.01171875,20.99609375,-136.71875
3,1746312951038.9688,-189.453125,-160.15625,53.22265625,-173.828125
4,1746312951042.875,-209.47265625,-81.0546875,21.97265625,-188.96484375
5,1746312951046.7812,-191.89453125,-29.78515625,-5.37109375,-198.2421875
6,1746312951050.6875,-158.69140625,-80.56640625,-28.80859375,-158.69140625
7,1746312951054.5938,-140.13671875,-104.98046875,-48.33984375,-139.6484375
8,1746312951058.5,-172.8515625,-69.3359375,-47.8515625,-174.31640625
9,1746312951062.4062,-188.4765625,-73.73046875,0,-136.23046875
10,1746312951066.3125,-155.2734375,-63.4765625,-4.8828125,-112.79296875
11,1746312951070.2188,-109.86328125,-106.4453125,-17.578125,-92.28515625
0,1746312951074.125,-83.49609375,-111.328125,0,-83.0078125
1,1746312951078.0312,-84.47265625,-50.29296875,-22.4609375,-106.93359375
2,1746312951081.9375,-117.67578125,-30.76171875,-45.8984375,-92.28515625
3,1746312951085.8438,-108.88671875,-61.03515625,-44.921875,-63.96484375
4,1746312951089.75,-40.0390625,-111.81640625,-37.109375,-29.78515625
5,1746312951093.6562,-47.36328125,-63.96484375,-61.5234375,-4.39453125
6,1746312951097.5625,-47.8515625,-12.20703125,-88.37890625,-36.1328125
7,1746312951101.4688,-3.41796875,40.0390625,-92.28515625,-60.546875
8,1746312951105.375,-42.96875,16.6015625,-74.21875,2.44140625
9,1746312951109.2812,-60.05859375,-60.05859375,-61.5234375,-22.4609375
10,1746312951113.1875,-1.953125,-72.75390625,-28.3203125,-57.6171875
11,1746312951117.0938,24.4140625,-96.6796875,1.953125,-22.4609375
0,1746312951121,-23.92578125,-6.34765625,-50.78125,-87.40234375
1,1746312951124.9062,-20.01953125,-70.3125,-62.01171875,-83.984375
2,1746312951128.8125,-55.17578125,-83.984375,-49.31640625,-60.546875
3,1746312951132.7188,-100.09765625,72.75390625,-50.78125,-52.24609375
4,1746312951136.625,-80.56640625,144.04296875,-80.078125,-53.22265625
5,1746312951140.5312,-125.48828125,125,-113.76953125,-94.23828125
6,1746312951144.4375,-152.83203125,32.2265625,-60.05859375,-123.046875
7,1746312951148.3438,-153.80859375,1.46484375,-32.71484375,-91.796875
8,1746312951152.25,-103.515625,-51.26953125,-48.828125,-2.44140625
9,1746312951156.1562,-72.265625,-70.80078125,-31.73828125,-57.12890625
10,1746312951160.0625,-55.17578125,-3.90625,-14.16015625,-101.07421875
11,1746312951163.9688,-24.90234375,4.8828125,-27.83203125,-59.5703125
0,1746312951167.875,-160.64453125,11.71875,-74.70703125,-151.3671875
1,1746312951171.7812,-166.50390625,21.97265625,-71.77734375,-169.43359375
2,1746312951175.6875,-34.66796875,182.12890625,-117.67578125,-83.49609375
3,1746312951179.5938,-85.9375,223.6328125,-119.62890625,-160.64453125
4,1746312951183.5,-148.92578125,120.60546875,-6.34765625,-151.85546875
5,1746312951187.4062,-180.17578125,101.07421875,-20.5078125,-118.1640625
6,1746312951191.3125,-139.6484375,54.6875,-60.05859375,-163.0859375
7,1746312951195.2188,-103.515625,-3.41796875,-79.1015625,-126.953125
8,1746312951199.125,-110.83984375,-9.27734375,-47.36328125,-65.4296875
9,1746312951203.0312,-125.9765625,69.82421875,-45.41015625,-81.54296875
10,1746312951206.9375,-152.83203125,151.85546875,-71.77734375,-120.60546875
11,1746312951210.8438,-145.5078125,224.609375,-106.4453125,-132.32421875
0,1746312951214.75,-97.65625,170.41015625,-107.91015625,-117.1875
1,1746312951218.6562,-25.390625,29.296875,-74.70703125,-54.6875
2,1746312951222.5625,-71.77734375,51.26953125,-133.30078125,-48.828125
3,1746312951226.4688,-109.86328125,109.375,-177.24609375,-37.109375
4,1746312951230.375,-68.84765625,79.1015625,-97.16796875,-20.99609375
5,1746312951234.2812,-103.02734375,183.59375,-68.84765625,-108.3984375
6,1746312951238.1875,-128.41796875,205.56640625,-97.65625,-122.55859375
7,1746312951242.0938,-151.3671875,205.56640625,-87.890625,-122.0703125
8,1746312951246,-142.578125,165.0390625,-60.546875,-121.09375
9,1746312951249.9062,-129.39453125,33.69140625,-90.33203125,-139.16015625
10,1746312951253.8125,-146.97265625,56.640625,-166.50390625,-140.625
11,1746312951257.7188,-147.4609375,154.78515625,-160.64453125,-106.93359375
0,1746312951261.625,-163.57421875,150.87890625,-194.3359375,-125
1,1746312951265.5312,-123.53515625,53.7109375,-231.4453125,-119.140625
2,1746312951269.4375,-94.7265625,-42.96875,-150.390625,-95.21484375
3,1746312951273.3438,-100.09765625,19.04296875,-111.328125,-103.515625
4,1746312951277.25,-122.0703125,70.3125,-148.92578125,-118.1640625
5,1746312951281.1562,-144.04296875,27.83203125,-177.24609375,-104.98046875
6,1746312951285.0625,-104.00390625,-9.765625,-177.734375,-71.2890625
7,1746312951288.9688,-64.94140625,-93.26171875,-174.31640625,-63.4765625
8,1746312951292.875,-56.640625,-108.3984375,-170.41015625,-53.7109375
9,1746312951296.7812,-29.296875,-109.375,-133.30078125,-19.53125
10,1746312951300.6875,-46.38671875,-93.75,-186.03515625,-31.25
11,1746312951304.5938,-52.24609375,-20.99609375,-214.84375,-48.33984375
0,1746312951308.5,0.48828125,-44.921875,-162.109375,-16.11328125
1,1746312951312.4062,5.859375,-112.3046875,-115.72265625,-4.39453125
2,1746312951316.3125,-93.75,-9.27734375,-105.95703125,-47.36328125
3,1746312951320.2188,-69.82421875,77.1484375,-99.609375,-29.78515625
4,1746312951324.125,-8.30078125,1.46484375,-81.0546875,-23.4375
5,1746312951328.0312,6.8359375,-51.26953125,-84.9609375,-47.36328125
6,1746312951331.9375,26.85546875,-104.98046875,-62.98828125,5.859375
7,1746312951335.8438,13.18359375,-95.21484375,-90.8203125,14.6484375
8,1746312951339.75,-4.8828125,-48.828125,-100.09765625,-14.16015625
9,1746312951343.6562,-37.109375,-82.03125,-118.65234375,3.41796875
10,1746312951347.5625,-7.8125,-145.99609375,-125.9765625,9.765625
11,1746312951351.4688,-0.9765625,-147.4609375,-61.03515625,17.578125
0,1746312951355.375,-34.1796875,-29.78515625,-75.68359375,-5.37109375
1,1746312951359.2812,-49.31640625,11.71875,-73.2421875,-75.1953125
2,1746312951363.1875,-38.0859375,-36.1328125,-42.48046875,-43.45703125
3,1746312951367.0938,-3.90625,-57.12890625,-47.36328125,14.6484375
4,1746312951371,6.8359375,-62.01171875,-68.84765625,12.6953125
5,1746312951374.9062,-29.78515625,-42.48046875,-70.3125,-14.6484375
6,1746312951378.8125,3.90625,-77.1484375,-70.3125,16.11328125
7,1746312951382.7188,54.19921875,-112.79296875,-31.25,69.3359375
8,1746312951386.625,4.39453125,-56.640625,-4.39453125,41.9921875
9,1746312951390.5312,-81.0546875,-32.2265625,-62.5,-2.44140625
10,1746312951394.4375,-93.26171875,-45.41015625,-74.70703125,-31.73828125
11,1746312951398.3438,-70.80078125,-8.30078125,-63.96484375,-57.6171875
0,1746312951402.25,-48.828125,-67.3828125,-43.9453125,-31.25
1,1746312951406.1562,-8.30078125,-134.765625,-22.94921875,-4.39453125
2,1746312951410.0625,-19.53125,-85.44921875,-62.98828125,-29.296875
3,1746312951413.9688,-57.6171875,-42.96875,-56.640625,-45.8984375
4,1746312951417.875,-42.96875,-57.6171875,-40.0390625,-23.4375
5,1746312951421.7812,-13.671875,-56.15234375,-35.64453125,-8.7890625
6,1746312951425.6875,-20.99609375,-84.47265625,-77.1484375,23.92578125
7,1746312951429.5938,-14.6484375,-82.03125,-109.86328125,35.64453125
8,1746312951433.5,-38.0859375,-5.859375,-34.1796875,-32.71484375
9,1746312951437.4062,-58.59375,-60.05859375,20.99609375,-64.453125
10,1746312951441.3125,-41.50390625,-100.5859375,3.41796875,-40.52734375
11,1746312951445.2188,-61.5234375,-38.0859375,-35.64453125,-21.484375
0,1746312951449.125,-68.84765625,-33.69140625,-34.1796875,-7.32421875
1,1746312951453.0312,-57.12890625,-64.453125,-45.41015625,-37.109375
2,1746312951456.9375,-41.50390625,-36.1328125,-72.75390625,-35.15625
3,1746312951460.8438,-16.6015625,-25.390625,-94.7265625,-14.16015625
4,1746312951464.75,-52.24609375,-96.6796875,-83.49609375,-23.92578125
5,1746312951468.6562,-32.71484375,-75.1953125,-41.9921875,-22.4609375
6,1746312951472.5625,-42.96875,-13.671875,-42.48046875,-41.9921875
7,1746312951476.4688,-65.4296875,-59.5703125,-55.17578125,-66.89453125
8,1746312951480.375,-48.828125,-90.33203125,-55.17578125,-51.7578125
9,1746312951484.2812,-65.91796875,-53.22265625,-43.9453125,-33.69140625
10,1746312951488.1875,-54.19921875,-21.97265625,-31.25,-44.43359375
11,1746312951492.0938,-55.17578125,-24.90234375,-70.80078125,-53.22265625
0,1746312951496,-60.546875,-34.66796875,-82.51953125,-58.59375
1,1746312951499.9062,-31.73828125,-76.66015625,-59.5703125,-19.04296875
2,1746312951503.8125,-0.9765625,-115.234375,-71.2890625,20.5078125
3,1746312951507.7188,-28.3203125,-42.96875,-44.43359375,-1.953125
4,1746312951511.625,-80.078125,6.8359375,-51.26953125,-29.78515625
5,1746312951515.5312,-66.40625,-38.0859375,-75.68359375,-2.44140625
6,1746312951519.4375,-34.1796875,-77.1484375,-34.1796875,25.87890625
7,1746312951523.3438,-82.51953125,-53.7109375,-24.90234375,-46.38671875
8,1746312951527.25,-97.65625,-33.69140625,-43.45703125,-79.1015625
9,1746312951531.1562,-45.41015625,-64.94140625,-61.5234375,-6.8359375
10,1746312951535.0625,-16.11328125,-78.61328125,-52.24609375,20.5078125
11,1746312951538.9688,-9.765625,-63.4765625,-64.453125,-3.90625
0,1746312951542.875,-40.0390625,-32.2265625,-74.21875,-9.765625
1,1746312951546.7812,-33.69140625,-7.32421875,-45.8984375,-25.87890625
2,1746312951550.6875,0,-79.58984375,-18.06640625,2.44140625
3,1746312951554.5938,-24.4140625,-57.12890625,-41.015625,3.41796875
4,1746312951558.5,-23.4375,-41.015625,-58.10546875,-36.1328125
5,1746312951562.4062,-2.9296875,-113.76953125,-42.48046875,0.9765625
6,1746312951566.3125,-54.19921875,-47.8515625,-60.05859375,-19.53125
7,1746312951570.2188,-85.9375,57.12890625,-48.828125,-78.61328125
8,1746312951574.125,-75.68359375,38.0859375,-29.78515625,-74.70703125
9,1746312951578.0312,-48.33984375,-30.76171875,-28.80859375,-43.9453125
10,1746312951581.9375,-60.546875,-114.2578125,-45.8984375,-31.25
11,1746312951585.8438,-77.1484375,-96.19140625,-53.7109375,-48.33984375
0,1746312951589.75,-56.640625,-28.80859375,-65.4296875,-35.64453125
1,1746312951593.6562,-52.734375,-15.625,-66.40625,-30.76171875
2,1746312951597.5625,-26.85546875,-38.0859375,-18.5546875,-42.96875
3,1746312951601.4688,-4.8828125,-33.203125,-30.76171875,-33.203125
4,1746312951605.375,-43.45703125,-7.8125,-45.8984375,-28.80859375
5,1746312951609.2812,-87.40234375,-22.94921875,-42.96875,-86.42578125
6,1746312951613.1875,-79.58984375,-45.41015625,-57.6171875,-95.21484375
7,1746312951617.0938,-34.66796875,-98.14453125,-60.05859375,-26.3671875
8,1746312951621,-21.97265625,-81.54296875,-66.40625,-6.34765625
9,1746312951624.9062,-60.05859375,-20.01953125,-75.1953125,-52.24609375
10,1746312951628.8125,-69.82421875,-17.578125,-85.9375,-78.61328125
11,1746312951632.7188,-28.3203125,-25.390625,-57.6171875,-39.0625
0,1746312951636.625,-24.90234375,-92.28515625,-25.390625,-9.765625
1,1746312951640.5312,-35.64453125,-134.765625,-29.78515625,-39.55078125
2,1746312951644.4375,-80.078125,-50.29296875,-28.80859375,-46.38671875
3,1746312951648.3438,-114.74609375,-17.08984375,-42.96875,-40.52734375
4,1746312951652.25,-76.66015625,-18.06640625,-41.9921875,-27.83203125
5,1746312951656.1562,-43.9453125,-27.83203125,-65.91796875,-21.97265625
6,1746312951660.0625,-45.41015625,-50.29296875,-49.31640625,-16.6015625
7,1746312951663.9688,-64.453125,-39.55078125,-41.50390625,-29.78515625
8,1746312951667.875,-74.70703125,-37.109375,-66.89453125,-52.24609375
9,1746312951671.7812,-50.29296875,-50.78125,-42.96875,-34.66796875
10,1746312951675.6875,-60.546875,-69.82421875,-41.50390625,-52.24609375
11,1746312951679.5938,-51.7578125,-70.80078125,-23.92578125,-42.96875
0,1746312951683.5,-5.859375,-19.04296875,-40.0390625,9.765625
1,1746312951687.4062,-20.5078125,-7.8125,-29.296875,16.6015625
2,1746312951691.3125,-44.43359375,-57.6171875,14.6484375,-3.90625
3,1746312951695.2188,-43.9453125,-31.25,-20.5078125,-18.5546875
4,1746312951699.125,-20.5078125,-25.87890625,-45.41015625,-35.15625
5,1746312951703.0312,-40.0390625,-67.3828125,-32.2265625,-16.11328125
6,1746312951706.9375,-65.4296875,-41.9921875,-59.5703125,-9.765625
7,1746312951710.8438,-58.59375,-50.78125,-71.2890625,11.23046875
8,1746312951714.75,-55.17578125,-53.22265625,-34.1796875,17.578125
9,1746312951718.6562,-58.59375,-30.2734375,-28.80859375,2.44140625
10,1746312951722.5625,-54.6875,-52.24609375,-59.5703125,3.90625
11,1746312951726.4688,-56.640625,-39.55078125,-44.43359375,-20.99609375
0,1746312951730.375,-78.125,-31.25,-9.765625,-55.17578125
1,1746312951734.2812,-55.6640625,-85.9375,-32.2265625,-53.7109375
2,1746312951738.1875,-20.5078125,-84.47265625,-41.9921875,-26.85546875
3,1746312951742.0938,-11.23046875,-18.5546875,-62.5,-6.8359375
4,1746312951746,-24.90234375,-18.06640625,-96.6796875,-22.94921875
5,1746312951749.9062,-45.8984375,-39.0625,-77.63671875,-37.59765625
6,1746312951753.8125,-11.71875,-35.64453125,-24.4140625,-37.109375
7,1746312951757.7188,-42.96875,-41.015625,-22.94921875,-12.6953125
8,1746312951761.625,-113.28125,-30.76171875,-49.8046875,-42.96875
9,1746312951765.5312,-90.8203125,-52.734375,-41.015625,-61.03515625
10,1746312951769.4375,-48.828125,-76.66015625,-75.68359375,-13.18359375
11,1746312951773.3438,-41.015625,-40.52734375,-58.10546875,-4.39453125
0,1746312951777.25,-57.12890625,-71.77734375,-12.6953125,-36.1328125
1,1746312951781.1562,-61.5234375,-61.5234375,-11.71875,-62.5
2,1746312951785.0625,-67.3828125,-16.11328125,-48.33984375,-57.12890625
3,1746312951788.9688,-60.05859375,-6.8359375,-65.91796875,-73.2421875
4,1746312951792.875,-51.26953125,-70.3125,-20.01953125,-31.73828125
5,1746312951796.7812,-40.52734375,-125.48828125,-13.671875,-12.6953125
6,1746312951800.6875,-52.734375,-26.3671875,-62.98828125,-67.87109375
7,1746312951804.5938,-58.59375,14.16015625,-66.40625,-64.453125
8,1746312951808.5,-74.70703125,-30.2734375,-48.828125,-63.4765625
9,1746312951812.4062,-77.1484375,-29.296875,-77.1484375,-53.22265625
10,1746312951816.3125,-17.08984375,-41.9921875,-67.3828125,-16.11328125
11,1746312951820.2188,12.20703125,-93.75,-34.1796875,-10.25390625
0,1746312951824.125,9.27734375,-90.33203125,-64.94140625,2.44140625
1,1746312951828.0312,-11.23046875,-47.36328125,-74.21875,-10.7421875
2,1746312951831.9375,-60.546875,-54.6875,-45.41015625,-52.24609375
3,1746312951835.8438,-76.66015625,-76.66015625,-52.24609375,-46.875
4,1746312951839.75,-73.73046875,-25.87890625,-82.03125,-32.2265625
5,1746312951843.6562,-99.609375,5.37109375,-58.10546875,-45.8984375
6,1746312951847.5625,-97.65625,-38.0859375,-13.18359375,-56.640625
7,1746312951851.4688,-54.19921875,-61.5234375,-67.3828125,-38.57421875
8,1746312951855.375,-42.48046875,-54.6875,-66.89453125,-49.31640625
9,1746312951859.2812,-62.5,-73.73046875,-13.671875,-59.08203125
10,1746312951863.1875,-71.77734375,-43.45703125,-20.01953125,-73.73046875
11,1746312951867.0938,-67.87109375,-14.16015625,-50.78125,-78.61328125
0,1746312951871,-51.26953125,-19.04296875,-61.03515625,-46.875
1,1746312951874.9062,-57.6171875,-41.50390625,-40.52734375,-53.7109375
2,1746312951878.8125,-60.05859375,-96.19140625,-17.578125,-55.6640625
3,1746312951882.7188,-55.6640625,-74.21875,-65.4296875,-34.66796875
4,1746312951886.625,-78.125,-14.6484375,-99.609375,-56.640625
5,1746312951890.5312,-72.265625,-19.53125,-55.17578125,-85.44921875
6,1746312951894.4375,-71.2890625,-61.03515625,-29.296875,-74.21875
7,1746312951898.3438,-94.7265625,-42.96875,-28.80859375,-45.41015625
8,1746312951902.25,-45.41015625,-26.3671875,-11.71875,-13.671875
9,1746312951906.1562,-35.15625,-67.3828125,-26.3671875,-32.71484375
10,1746312951910.0625,-50.29296875,-48.33984375,-59.08203125,-32.71484375
11,1746312951913.9688,-25.390625,-72.75390625,-39.55078125,-12.6953125
0,1746312951917.875,-39.55078125,-60.546875,-34.66796875,-58.10546875
1,1746312951921.7812,-52.24609375,5.859375,-79.58984375,-63.4765625
2,1746312951925.6875,-46.38671875,-31.25,-62.01171875,-17.578125
3,1746312951929.5938,-52.24609375,-68.359375,-29.78515625,-7.32421875
4,1746312951933.5,-67.87109375,-46.38671875,-41.50390625,-54.19921875
5,1746312951937.4062,-61.03515625,-49.31640625,-43.45703125,-67.3828125
6,1746312951941.3125,-51.26953125,-33.69140625,-54.19921875,-25.87890625
7,1746312951945.2188,-53.7109375,-28.80859375,-43.9453125,-33.203125
8,1746312951949.125,-52.734375,-27.83203125,-42.96875,-63.96484375
9,1746312951953.0312,-57.6171875,-9.27734375,-38.0859375,-62.01171875
10,1746312951956.9375,-48.828125,-55.17578125,-20.5078125,-49.31640625
11,1746312951960.8438,-75.1953125,-81.54296875,-43.45703125,-31.73828125
0,1746312951964.75,-69.3359375,-65.91796875,-31.25,-9.27734375
1,1746312951968.6562,-26.3671875,-58.59375,3.90625,-16.11328125
2,1746312951972.5625,-42.48046875,-62.01171875,-30.76171875,-57.6171875
3,1746312951976.4688,-61.03515625,-21.484375,-59.08203125,-52.24609375
4,1746312951980.375,-62.01171875,-17.08984375,-75.68359375,-41.50390625
5,1746312951984.2812,-43.9453125,-76.66015625,-53.7109375,-32.71484375
6,1746312951988.1875,-57.6171875,-67.3828125,-34.1796875,-44.921875
7,1746312951992.0938,-70.3125,-21.484375,-45.8984375,-43.9453125
8,1746312951996,-48.828125,-8.7890625,-48.828125,-51.7578125
9,1746312951999.9062,-30.2734375,-40.52734375,-34.1796875,-51.7578125
10,1746312952003.8125,-14.6484375,-56.15234375,-17.578125,-16.11328125
11,1746312952007.7188,-35.64453125,-61.03515625,-51.26953125,-27.34375
0,1746312952011.625,-59.08203125,-138.671875,-82.03125,-19.53125
1,1746312952015.5312,-64.453125,-102.05078125,-58.59375,-47.36328125
2,1746312952019.4375,-57.6171875,4.39453125,-42.48046875,-78.61328125
3,1746312952023.3438,-56.15234375,15.13671875,-29.78515625,-68.84765625
4,1746312952027.25,-59.5703125,9.27734375,-48.33984375,-62.5
5,1746312952031.1562,-59.08203125,-10.7421875,-74.21875,-53.22265625
6,1746312952035.0625,-20.01953125,-128.41796875,-30.2734375,11.23046875
7,1746312952038.9688,-37.59765625,-119.140625,-27.83203125,4.39453125
8,1746312952042.875,-84.9609375,-13.18359375,-35.64453125,-61.5234375
9,1746312952046.7812,-80.078125,13.18359375,-46.38671875,-38.57421875
10,1746312952050.6875,-49.31640625,-12.6953125,-25.87890625,2.44140625
11,1746312952054.5938,-18.06640625,-86.9140625,-9.27734375,-3.90625
0,1746312952058.5,-26.85546875,-92.28515625,-60.05859375,-47.8515625
1,1746312952062.4062,-63.96484375,-43.45703125,-36.62109375,-50.78125
2,1746312952066.3125,-75.1953125,41.015625,-4.8828125,-56.15234375
3,1746312952070.2188,-37.109375,16.6015625,-37.59765625,-56.15234375
4,1746312952074.125,11.23046875,-59.08203125,-49.31640625,35.64453125
5,1746312952078.0312,2.44140625,-57.12890625,-38.0859375,45.41015625
6,1746312952081.9375,-58.59375,-20.5078125,-49.31640625,-13.18359375
7,1746312952085.8438,-88.37890625,-30.2734375,-85.44921875,-26.3671875
8,1746312952089.75,-80.078125,-43.9453125,-45.41015625,-86.42578125
9,1746312952093.6562,-87.890625,-47.8515625,3.90625,-105.46875
10,1746312952097.5625,-110.3515625,-62.98828125,-35.15625,-74.21875
11,1746312952101.4688,-119.140625,-53.22265625,-47.8515625,-95.21484375
0,1746312952105.375,-96.6796875,-94.7265625,-22.4609375,-71.2890625
1,1746312952109.2812,-135.7421875,-143.5546875,-26.3671875,-84.47265625
2,1746312952113.1875,-194.82421875,-94.23828125,20.99609375,-125.9765625
3,1746312952117.0938,-157.2265625,-66.40625,41.015625,-107.91015625
4,1746312952121,-154.296875,-86.9140625,0,-128.90625
5,1746312952124.9062,-149.4140625,-143.06640625,5.859375,-112.79296875
6,1746312952128.8125,-177.24609375,-142.578125,-10.7421875,-88.37890625
7,1746312952132.7188,-198.2421875,-89.84375,-12.20703125,-81.54296875
8,1746312952136.625,-186.5234375,-74.21875,-21.97265625,-99.609375
9,1746312952140.5312,-239.74609375,-41.50390625,-97.65625,-145.99609375
10,1746312952144.4375,-237.79296875,-92.28515625,-35.15625,-125.9765625
11,1746312952148.3438,-187.01171875,-183.10546875,49.8046875,-84.47265625
0,1746312952152.25,-194.82421875,-164.0625,-0.9765625,-113.76953125
1,1746312952156.1562,-272.4609375,-98.6328125,-56.15234375,-162.59765625
2,1746312952160.0625,-241.69921875,-62.01171875,-1.46484375,-147.4609375
3,1746312952163.9688,-161.62109375,-126.953125,-30.76171875,-115.234375
4,1746312952167.875,-235.3515625,-112.79296875,-77.1484375,-198.2421875
5,1746312952171.7812,-289.0625,-63.96484375,16.11328125,-271.484375
6,1746312952175.6875,-286.1328125,-99.609375,7.8125,-274.90234375
7,1746312952179.5938,-288.0859375,-90.8203125,5.37109375,-262.20703125
8,1746312952183.5,-286.1328125,-122.0703125,-0.48828125,-231.4453125
9,1746312952187.4062,-237.3046875,-113.76953125,20.99609375,-144.53125
10,1746312952191.3125,-212.890625,-115.234375,42.96875,-144.53125
11,1746312952195.2188,-247.0703125,-165.0390625,-9.765625,-193.359375
0,1746312952199.125,-257.8125,-104.4921875,-38.0859375,-172.8515625
1,1746312952203.0312,-241.2109375,-130.37109375,-44.43359375,-163.57421875
2,1746312952206.9375,-207.03125,-198.2421875,-20.5078125,-154.78515625
3,1746312952210.8438,-213.8671875,-73.2421875,-61.5234375,-143.5546875
4,1746312952214.75,-223.6328125,-52.734375,-112.3046875,-141.6015625
5,1746312952218.6562,-149.90234375,-97.65625,-118.65234375,-74.70703125
6,1746312952222.5625,-146.484375,-111.328125,-68.359375,-54.19921875
7,1746312952226.4688,-208.984375,-170.8984375,13.671875,-130.37109375
8,1746312952230.375,-177.24609375,-165.52734375,30.76171875,-117.67578125
9,1746312952234.2812,-113.28125,-145.01953125,-7.32421875,-87.890625
10,1746312952238.1875,-112.3046875,-138.18359375,-54.19921875,-72.265625
11,1746312952242.0938,-165.52734375,-58.59375,-63.4765625,-83.0078125
0,1746312952246,-133.7890625,-44.43359375,-71.2890625,-97.65625
1,1746312952249.9062,-70.80078125,-91.796875,-100.09765625,-69.3359375
2,1746312952253.8125,-54.6875,-108.88671875,-81.54296875,-44.43359375
3,1746312952257.7188,-62.98828125,-89.84375,-56.15234375,-45.8984375
4,1746312952261.625,-55.6640625,-133.30078125,8.30078125,-47.8515625
5,1746312952265.5312,-1.953125,-175.29296875,37.59765625,-9.27734375
6,1746312952269.4375,-7.32421875,-91.30859375,-67.3828125,17.578125
7,1746312952273.3438,-28.80859375,-74.21875,-96.6796875,10.25390625
8,1746312952277.25,-52.734375,-67.3828125,-8.7890625,21.484375
9,1746312952281.1562,-57.12890625,-39.55078125,-33.69140625,-6.34765625
10,1746312952285.0625,-12.20703125,-58.59375,-51.7578125,1.46484375
11,1746312952288.9688,16.11328125,-73.73046875,-31.25,48.33984375
0,1746312952292.875,25.87890625,-121.58203125,2.44140625,66.40625
1,1746312952296.7812,14.6484375,-101.07421875,26.85546875,48.828125
2,1746312952300.6875,27.83203125,-102.05078125,-27.83203125,63.96484375
3,1746312952304.5938,41.015625,-110.3515625,-49.31640625,97.65625
4,1746312952308.5,30.76171875,-46.875,-39.0625,92.28515625
5,1746312952312.4062,41.9921875,-70.80078125,-40.52734375,55.6640625
6,1746312952316.3125,73.2421875,-80.56640625,-51.26953125,39.0625
7,1746312952320.2188,48.828125,-89.84375,-95.21484375,35.15625
8,1746312952324.125,-0.9765625,-83.49609375,-79.1015625,14.16015625
9,1746312952328.0312,1.46484375,-28.3203125,-74.21875,16.11328125
10,1746312952331.9375,36.1328125,-12.20703125,-54.6875,45.8984375
11,1746312952335.8438,25.87890625,-39.0625,-14.6484375,44.43359375
0,1746312952339.75,31.73828125,-54.6875,-20.5078125,32.2265625
1,1746312952343.6562,42.96875,-101.07421875,-35.15625,4.8828125
2,1746312952347.5625,18.5546875,-104.00390625,-55.17578125,16.11328125
3,1746312952351.4688,8.7890625,-56.640625,-100.5859375,36.1328125
4,1746312952355.375,26.3671875,-43.9453125,-86.42578125,48.828125
5,1746312952359.2812,50.29296875,-34.66796875,-41.9921875,37.109375
6,1746312952363.1875,25.390625,-110.3515625,-61.03515625,-3.90625
7,1746312952367.0938,-0.9765625,-78.125,-91.796875,20.01953125
8,1746312952371,22.94921875,15.13671875,-89.35546875,31.25
9,1746312952374.9062,-2.9296875,10.25390625,-47.8515625,-1.953125
10,1746312952378.8125,-26.85546875,10.7421875,-27.83203125,-20.01953125
11,1746312952382.7188,-19.53125,-24.4140625,-63.96484375,-16.11328125
0,1746312952386.625,-9.27734375,-45.8984375,-68.84765625,-0.48828125
1,1746312952390.5312,26.3671875,-56.15234375,-27.34375,-12.20703125
2,1746312952394.4375,-15.13671875,-52.734375,-53.22265625,-18.06640625
3,1746312952398.3438,-38.57421875,-25.87890625,-75.1953125,-28.3203125
4,1746312952402.25,-21.484375,-12.6953125,-68.84765625,-43.45703125
5,1746312952406.1562,-30.2734375,-14.16015625,-80.56640625,-41.9921875
6,1746312952410.0625,-6.34765625,-20.01953125,-52.24609375,-14.6484375
7,1746312952413.9688,-11.23046875,-36.1328125,-20.99609375,-13.18359375
8,1746312952417.875,6.34765625,-25.87890625,-4.39453125,-13.18359375
9,1746312952421.7812,6.34765625,-4.8828125,-48.828125,11.71875
10,1746312952425.6875,-12.20703125,-44.921875,-94.23828125,-27.34375
11,1746312952429.5938,-16.11328125,-53.7109375,-84.9609375,-21.484375
0,1746312952433.5,-21.97265625,-23.4375,-103.02734375,15.625
1,1746312952437.4062,-24.4140625,-65.91796875,-31.25,-35.15625
2,1746312952441.3125,-35.64453125,-66.89453125,41.50390625,-67.3828125
3,1746312952445.2188,-35.64453125,-51.7578125,-8.30078125,-19.53125
4,1746312952449.125,-34.66796875,-22.94921875,-38.0859375,-21.97265625
5,1746312952453.0312,-20.5078125,18.06640625,-30.76171875,-17.578125
6,1746312952456.9375,-23.92578125,-45.8984375,-20.5078125,-10.7421875
7,1746312952460.8438,-41.50390625,-103.02734375,-35.15625,-53.7109375
8,1746312952464.75,-37.59765625,-42.96875,-58.10546875,-43.45703125
9,1746312952468.6562,-32.2265625,-27.83203125,-13.671875,-21.97265625
10,1746312952472.5625,-48.828125,-42.96875,-3.41796875,-25.390625
11,1746312952476.4688,-29.78515625,-27.34375,-56.15234375,22.4609375
0,1746312952480.375,-35.15625,-72.75390625,-40.52734375,-0.9765625
1,1746312952484.2812,-24.4140625,-65.91796875,-7.32421875,-26.85546875
2,1746312952488.1875,11.23046875,-74.21875,-12.6953125,-17.578125
3,1746312952492.0938,-37.59765625,-68.84765625,-92.28515625,-66.40625
4,1746312952496,-76.66015625,-7.8125,-93.75,-91.30859375
5,1746312952499.9062,-46.875,-6.8359375,-2.44140625,-67.87109375
6,1746312952503.8125,-35.15625,-20.01953125,-1.953125,-44.43359375
7,1746312952507.7188,-44.43359375,-29.296875,-34.1796875,-43.9453125
8,1746312952511.625,-35.64453125,-43.9453125,-98.14453125,5.859375
9,1746312952515.5312,-9.765625,-57.12890625,-78.125,3.41796875
10,1746312952519.4375,-3.41796875,-57.12890625,-8.7890625,-55.6640625
11,1746312952523.3438,-3.41796875,-95.703125,2.9296875,-65.91796875
0,1746312952527.25,-5.859375,-106.93359375,-12.6953125,-45.8984375
1,1746312952531.1562,-23.92578125,-31.73828125,-47.8515625,-35.64453125
2,1746312952535.0625,-33.203125,-10.7421875,-58.10546875,-27.34375
3,1746312952538.9688,-38.0859375,5.37109375,-41.015625,-36.62109375
4,1746312952542.875,-38.57421875,2.44140625,-28.80859375,-78.125
5,1746312952546.7812,-21.484375,-34.66796875,-46.875,-61.03515625
6,1746312952550.6875,-3.41796875,-55.6640625,-38.0859375,-35.64453125
7,1746312952554.5938,-10.25390625,-77.63671875,-20.99609375,-8.30078125
8,1746312952558.5,-26.85546875,-66.40625,-53.7109375,6.34765625
9,1746312952562.4062,-27.34375,-69.82421875,-96.19140625,-13.18359375
10,1746312952566.3125,-24.4140625,-29.296875,-90.8203125,-25.87890625
11,1746312952570.2188,-44.921875,-6.8359375,-29.296875,-63.4765625
0,1746312952574.125,-43.45703125,-74.70703125,22.94921875,-73.2421875
1,1746312952578.0312,-9.27734375,-62.01171875,-4.39453125,-50.29296875
2,1746312952581.9375,-19.53125,-6.34765625,-42.48046875,-59.08203125
3,1746312952585.8438,-1.46484375,-16.6015625,-18.5546875,-43.9453125
4,1746312952589.75,16.6015625,-56.15234375,-25.390625,-9.27734375
5,1746312952593.6562,-22.4609375,-116.2109375,-91.30859375,-27.83203125
6,1746312952597.5625,-42.96875,-46.875,-50.78125,-69.82421875
7,1746312952601.4688,-58.59375,21.97265625,6.8359375,-61.5234375
8,1746312952605.375,-38.57421875,-45.8984375,3.41796875,-36.1328125
9,1746312952609.2812,-8.30078125,-41.50390625,-35.15625,-24.4140625
10,1746312952613.1875,-12.6953125,-24.90234375,-70.80078125,-16.6015625
11,1746312952617.0938,-32.71484375,-23.92578125,-35.64453125,-30.2734375
0,1746312952621,-8.30078125,22.4609375,-17.08984375,14.16015625
1,1746312952624.9062,5.37109375,-23.92578125,-18.06640625,-4.39453125
2,1746312952628.8125,-35.15625,-79.58984375,-25.390625,-79.58984375
3,1746312952632.7188,-8.7890625,-53.7109375,-43.45703125,-74.70703125
4,1746312952636.625,-7.8125,-40.52734375,-13.671875,-41.50390625
5,1746312952640.5312,-47.36328125,-44.921875,-10.7421875,-37.109375
6,1746312952644.4375,-35.64453125,-22.94921875,-31.73828125,-38.0859375
7,1746312952648.3438,-40.52734375,-21.484375,-32.71484375,-55.6640625
8,1746312952652.25,-29.296875,-42.96875,-31.25,-32.2265625
9,1746312952656.1562,-6.8359375,-71.77734375,-81.0546875,-21.97265625
10,1746312952660.0625,2.44140625,-85.44921875,-67.87109375,-37.109375
11,1746312952663.9688,-0.9765625,-61.03515625,-29.78515625,-32.2265625
0,1746312952667.875,-14.16015625,-20.99609375,-43.9453125,-24.90234375
1,1746312952671.7812,-30.76171875,-8.30078125,-33.69140625,-56.15234375
2,1746312952675.6875,-40.52734375,-20.01953125,-47.8515625,-39.55078125
3,1746312952679.5938,-24.4140625,-10.7421875,-40.0390625,-38.57421875
4,1746312952683.5,-22.4609375,-46.875,21.97265625,-35.15625
5,1746312952687.4062,-39.55078125,-81.54296875,13.18359375,-31.25
6,1746312952691.3125,-51.7578125,-21.97265625,-22.4609375,-74.21875
7,1746312952695.2188,-38.0859375,-20.01953125,-49.8046875,-71.77734375
8,1746312952699.125,-23.4375,-69.3359375,-63.96484375,-49.8046875
9,1746312952703.0312,-22.94921875,-52.24609375,-62.98828125,23.4375
10,1746312952706.9375,1.953125,-6.8359375,-22.94921875,0.9765625
11,1746312952710.8438,-7.8125,-20.01953125,-24.4140625,-76.66015625
0,1746312952714.75,-38.57421875,0.48828125,-56.640625,-55.17578125
1,1746312952718.6562,-46.875,20.01953125,-60.546875,-51.26953125
2,1746312952722.5625,-28.3203125,-26.85546875,-30.2734375,-33.203125
3,1746312952726.4688,-19.53125,-70.3125,3.90625,-23.92578125
4,1746312952730.375,-48.33984375,-55.17578125,-16.11328125,-51.26953125
5,1746312952734.2812,-34.66796875,-44.43359375,-54.19921875,-25.390625
6,1746312952738.1875,-21.97265625,-43.45703125,-82.03125,-17.578125
7,1746312952742.0938,-33.203125,-45.41015625,-48.33984375,-63.4765625
8,1746312952746,-12.6953125,-84.47265625,23.4375,-46.38671875
9,1746312952749.9062,2.9296875,-118.1640625,35.15625,-20.01953125
10,1746312952753.8125,-50.29296875,-137.20703125,-34.1796875,-53.7109375
11,1746312952757.7188,-78.61328125,-0.9765625,-71.77734375,-74.21875
0,1746312952761.625,-45.8984375,57.12890625,-71.2890625,-47.8515625
1,1746312952765.5312,-49.31640625,-21.484375,-81.0546875,-31.73828125
2,1746312952769.4375,-31.73828125,-61.03515625,-57.12890625,-25.87890625
3,1746312952773.3438,-6.8359375,-71.77734375,19.04296875,3.90625
4,1746312952777.25,-8.30078125,-112.3046875,-0.9765625,1.953125
5,1746312952781.1562,-44.921875,-68.84765625,-45.8984375,-52.24609375
6,1746312952785.0625,-67.87109375,2.44140625,-21.97265625,-44.921875
7,1746312952788.9688,-46.875,-4.8828125,-41.9921875,-34.66796875
8,1746312952792.875,-16.6015625,1.953125,-36.62109375,-35.15625
9,1746312952796.7812,-26.3671875,-21.97265625,-9.27734375,-24.4140625
10,1746312952800.6875,-34.66796875,-51.7578125,-16.6015625,-35.64453125
11,1746312952804.5938,-19.04296875,-76.66015625,-21.484375,-28.3203125
0,1746312952808.5,-36.62109375,-92.28515625,-20.99609375,-38.0859375
1,1746312952812.4062,-36.1328125,-57.6171875,-39.0625,-22.4609375
2,1746312952816.3125,-56.15234375,-32.2265625,-70.80078125,-42.48046875
3,1746312952820.2188,-62.5,-33.69140625,-43.9453125,-49.8046875
4,1746312952824.125,-43.45703125,-38.57421875,-17.578125,-40.0390625
5,1746312952828.0312,-30.76171875,-53.7109375,-33.203125,-23.92578125
6,1746312952831.9375,-10.25390625,-65.4296875,-19.04296875,4.8828125
7,1746312952835.8438,-27.83203125,-71.2890625,-30.2734375,-13.671875
8,1746312952839.75,-55.6640625,-36.1328125,-46.38671875,-48.828125
9,1746312952843.6562,-55.17578125,-62.01171875,-62.01171875,-46.875
10,1746312952847.5625,-37.109375,-107.91015625,-10.7421875,7.8125
11,1746312952851.4688,-33.203125,-48.828125,24.4140625,-39.55078125
0,1746312952855.375,-47.36328125,26.85546875,-14.16015625,-110.3515625
1,1746312952859.2812,-38.57421875,-12.20703125,-33.69140625,-50.29296875
2,1746312952863.1875,-40.52734375,-56.640625,-85.9375,-39.0625
3,1746312952867.0938,-43.45703125,-59.5703125,-65.91796875,-80.56640625
4,1746312952871,-25.87890625,-68.84765625,-19.53125,-59.5703125
5,1746312952874.9062,-51.7578125,-57.12890625,-60.05859375,-59.08203125
6,1746312952878.8125,-72.75390625,-67.87109375,-31.25,-90.8203125
7,1746312952882.7188,-48.33984375,-105.46875,2.44140625,-54.6875
8,1746312952886.625,-28.3203125,-70.80078125,-27.83203125,-1.46484375
9,1746312952890.5312,-26.3671875,-38.57421875,-29.296875,-20.99609375
10,1746312952894.4375,-41.015625,-43.45703125,-21.97265625,-35.15625
11,1746312952898.3438,-32.2265625,-84.47265625,-47.8515625,-55.6640625
0,1746312952902.25,-24.4140625,-102.5390625,-54.19921875,-40.0390625
1,1746312952906.1562,-33.203125,-27.83203125,-35.64453125,-11.23046875
2,1746312952910.0625,-47.36328125,-7.8125,-26.85546875,-35.15625
3,1746312952913.9688,-41.9921875,-48.33984375,-17.08984375,-52.24609375
4,1746312952917.875,-31.25,-53.22265625,13.18359375,-43.45703125
5,1746312952921.7812,-27.83203125,-41.015625,-25.390625,-15.625
6,1746312952925.6875,-48.828125,-41.9921875,-78.125,-27.83203125
7,1746312952929.5938,-52.24609375,-74.70703125,-44.43359375,-32.71484375
8,1746312952933.5,-19.04296875,-90.8203125,-77.1484375,-1.46484375
9,1746312952937.4062,-27.34375,-73.73046875,-52.734375,-20.99609375
10,1746312952941.3125,-42.96875,-70.80078125,34.66796875,-61.5234375
11,1746312952945.2188,-24.4140625,-64.453125,46.38671875,-50.29296875
0,1746312952949.125,-30.2734375,-24.4140625,-4.39453125,-37.59765625
1,1746312952953.0312,-48.828125,0.48828125,-95.21484375,-78.61328125
2,1746312952956.9375,-62.01171875,-5.859375,-92.7734375,-87.40234375
3,1746312952960.8438,-45.8984375,-42.48046875,-6.8359375,-35.64453125
4,1746312952964.75,-10.7421875,-51.7578125,-1.953125,-7.8125
5,1746312952968.6562,-14.6484375,-67.87109375,-49.8046875,-8.30078125
6,1746312952972.5625,-21.97265625,-111.328125,-62.5,2.44140625
7,1746312952976.4688,-37.59765625,-117.67578125,-37.109375,-33.69140625
8,1746312952980.375,-66.40625,-28.3203125,-14.6484375,-67.3828125
9,1746312952984.2812,-43.45703125,37.59765625,-20.01953125,-45.8984375
10,1746312952988.1875,-32.2265625,-0.9765625,-56.15234375,-33.203125
11,1746312952992.0938,-63.96484375,-22.4609375,-55.17578125,-43.9453125
0,1746312952996,-39.0625,-54.6875,-21.97265625,-17.578125
1,1746312952999.9062,-15.13671875,-105.46875,-14.16015625,-3.41796875
2,1746312953003.8125,-61.03515625,-54.19921875,-39.0625,-43.45703125
3,1746312953007.7188,-77.63671875,12.6953125,-43.9453125,-38.57421875
4,1746312953011.625,-63.4765625,11.23046875,-20.01953125,-75.1953125
5,1746312953015.5312,-47.36328125,-20.99609375,-20.99609375,-83.49609375
6,1746312953019.4375,-25.87890625,-55.6640625,-12.20703125,-43.45703125
7,1746312953023.3438,-22.4609375,-86.9140625,6.34765625,-44.43359375
8,1746312953027.25,-55.17578125,-66.40625,-20.01953125,-64.453125
9,1746312953031.1562,-61.03515625,-18.06640625,-64.94140625,-57.6171875
10,1746312953035.0625,-4.39453125,-66.89453125,-69.82421875,0
11,1746312953038.9688,1.46484375,-124.0234375,-54.6875,25.390625
0,1746312953042.875,-54.19921875,-42.96875,-10.7421875,-38.0859375
1,1746312953046.7812,-73.2421875,10.25390625,7.32421875,-109.375
2,1746312953050.6875,-57.6171875,-1.46484375,-14.16015625,-60.05859375
3,1746312953054.5938,-15.625,-35.64453125,0.9765625,-19.53125
4,1746312953058.5,-12.6953125,-28.3203125,-19.04296875,-39.55078125
5,1746312953062.4062,-27.83203125,-38.57421875,-67.3828125,0.9765625
6,1746312953066.3125,-33.203125,-95.21484375,-58.10546875,-40.52734375
7,1746312953070.2188,-50.78125,-63.4765625,1.953125,-70.3125
8,1746312953074.125,-60.05859375,-25.390625,-33.69140625,-19.53125
9,1746312953078.0312,-42.96875,-18.5546875,-47.8515625,-18.06640625
10,1746312953081.9375,-39.0625,-4.8828125,-20.5078125,-34.1796875
11,1746312953085.8438,-47.8515625,-33.69140625,-37.109375,-46.38671875
0,1746312953089.75,-63.96484375,-46.38671875,-42.48046875,-81.0546875
1,1746312953093.6562,-49.31640625,-33.69140625,-41.50390625,-63.96484375
2,1746312953097.5625,-18.5546875,-77.1484375,-29.78515625,-24.90234375
3,1746312953101.4688,-26.3671875,-69.82421875,-54.6875,-23.4375
4,1746312953105.375,-20.5078125,-4.39453125,-75.1953125,-1.46484375
5,1746312953109.2812,-7.32421875,-49.8046875,-43.9453125,36.62109375
6,1746312953113.1875,-16.6015625,-68.359375,-8.30078125,-61.5234375
7,1746312953117.0938,-53.22265625,-7.8125,-3.90625,-89.84375
8,1746312953121,-53.7109375,5.37109375,-11.23046875,-40.52734375
9,1746312953124.9062,-33.203125,14.6484375,-29.296875,-63.4765625
10,1746312953128.8125,-16.6015625,-6.8359375,-44.921875,-44.921875
11,1746312953132.7188,-14.16015625,-85.9375,-14.6484375,-31.73828125
0,1746312953136.625,-18.5546875,-80.56640625,-16.11328125,-41.9921875
1,1746312953140.5312,-19.53125,-15.625,-56.640625,-48.33984375
2,1746312953144.4375,-46.875,-49.8046875,-60.546875,-55.17578125
3,1746312953148.3438,-63.4765625,-14.16015625,-46.38671875,-30.2734375
4,1746312953152.25,-42.96875,18.06640625,-50.78125,-13.18359375
5,1746312953156.1562,-33.69140625,-20.5078125,-51.7578125,-37.59765625
6,1746312953160.0625,-11.71875,-20.99609375,-8.7890625,-41.015625
7,1746312953163.9688,11.23046875,-72.265625,24.4140625,-22.4609375
8,1746312953167.875,-12.6953125,-84.9609375,11.23046875,-3.90625
9,1746312953171.7812,-63.4765625,-12.6953125,-47.36328125,-49.8046875
10,1746312953175.6875,-54.6875,-0.9765625,-62.98828125,-45.41015625
11,1746312953179.5938,-30.2734375,-29.78515625,-50.78125,-16.11328125
0,1746312953183.5,-4.8828125,-24.90234375,-91.30859375,7.8125
1,1746312953187.4062,-15.625,-18.06640625,-94.23828125,27.83203125
2,1746312953191.3125,-46.875,-23.4375,-4.8828125,-41.015625
3,1746312953195.2188,-23.92578125,-73.73046875,52.734375,-60.546875
4,1746312953199.125,-19.53125,-108.88671875,20.01953125,-30.76171875
5,1746312953203.0312,-42.48046875,-29.296875,-44.43359375,-50.78125
6,1746312953206.9375,-45.41015625,29.78515625,-35.64453125,-49.8046875
7,1746312953210.8438,-25.87890625,3.41796875,-54.19921875,-39.55078125
8,1746312953214.75,-21.484375,-43.45703125,-122.55859375,-37.59765625
9,1746312953218.6562,-40.52734375,-54.19921875,-44.43359375,-41.50390625
10,1746312953222.5625,-45.41015625,-33.69140625,52.24609375,-34.1796875
11,1746312953226.4688,-40.52734375,-23.92578125,7.8125,-38.0859375
0,1746312953230.375,-30.76171875,-76.66015625,-37.109375,-68.359375
1,1746312953234.2812,-11.23046875,-77.63671875,-25.87890625,-20.99609375
2,1746312953238.1875,-31.73828125,3.90625,-61.03515625,-25.87890625
3,1746312953242.0938,-27.34375,20.99609375,-70.80078125,-79.58984375
4,1746312953246,-0.48828125,-19.04296875,-55.6640625,-20.01953125
5,1746312953249.9062,-15.13671875,-57.12890625,-57.6171875,0.9765625
6,1746312953253.8125,-31.73828125,-28.3203125,-1.953125,-16.11328125
7,1746312953257.7188,-47.8515625,-38.57421875,19.53125,-27.34375
8,1746312953261.625,-50.78125,-40.0390625,14.6484375,-66.40625
9,1746312953265.5312,-31.25,2.44140625,-8.7890625,-42.96875
10,1746312953269.4375,-36.1328125,-20.5078125,-56.640625,-37.109375
11,1746312953273.3438,-33.203125,-14.6484375,-66.89453125,-34.66796875
0,1746312953277.25,-8.30078125,-9.765625,-44.43359375,-16.6015625
1,1746312953281.1562,-19.53125,-67.3828125,-27.34375,-43.45703125
2,1746312953285.0625,-20.99609375,-102.5390625,-33.203125,-36.62109375
3,1746312953288.9688,-15.13671875,-64.453125,1.46484375,-45.41015625
4,1746312953292.875,-45.8984375,-8.30078125,0,-43.9453125
5,1746312953296.7812,-35.15625,-12.6953125,-50.78125,-13.18359375
6,1746312953300.6875,-15.13671875,-22.94921875,-32.2265625,-32.71484375
7,1746312953304.5938,-27.34375,3.90625,1.953125,-59.5703125
8,1746312953308.5,-16.11328125,17.08984375,-40.52734375,-28.3203125
9,1746312953312.4062,-14.6484375,-21.484375,-73.73046875,-16.6015625
10,1746312953316.3125,-32.71484375,-74.21875,-41.50390625,-37.59765625
11,1746312953320.2188,-38.57421875,-48.33984375,-25.87890625,-38.0859375
0,1746312953324.125,-25.390625,-44.921875,-16.11328125,-34.1796875
1,1746312953328.0312,-15.625,-67.87109375,-19.53125,-32.2265625
2,1746312953331.9375,-19.04296875,-13.18359375,-32.71484375,13.671875
3,1746312953335.8438,-42.48046875,-23.92578125,-23.92578125,9.27734375
4,1746312953339.75,-66.89453125,-74.21875,-39.55078125,-84.47265625
5,1746312953343.6562,-62.5,-29.296875,-48.828125,-89.35546875
6,1746312953347.5625,-37.109375,-5.37109375,-54.19921875,-25.87890625
7,1746312953351.4688,-14.6484375,0.48828125,-59.08203125,-8.30078125
8,1746312953355.375,-17.08984375,0,-23.4375,-40.52734375
9,1746312953359.2812,-10.25390625,-59.08203125,8.7890625,-50.29296875
10,1746312953363.1875,-33.203125,-71.77734375,-3.41796875,-27.83203125
11,1746312953367.0938,-23.92578125,-42.48046875,-28.80859375,-9.765625
0,1746312953371,-24.90234375,-50.29296875,-23.92578125,-12.6953125
1,1746312953374.9062,-62.01171875,-39.55078125,-9.27734375,-47.8515625
2,1746312953378.8125,-45.41015625,-31.73828125,-45.41015625,-61.03515625
3,1746312953382.7188,-30.2734375,-56.15234375,-33.203125,-26.3671875
4,1746312953386.625,-27.34375,-37.59765625,-34.66796875,-19.53125
5,1746312953390.5312,-30.2734375,4.8828125,-51.26953125,-22.94921875
6,1746312953394.4375,-14.16015625,-22.4609375,-37.109375,-0.9765625
7,1746312953398.3438,-18.06640625,-65.91796875,-64.94140625,-36.1328125
8,1746312953402.25,-42.48046875,-23.4375,-22.94921875,-57.6171875
9,1746312953406.1562,-42.96875,-1.953125,-6.8359375,-5.37109375
10,1746312953410.0625,-23.92578125,-20.5078125,-62.5,-9.27734375
11,1746312953413.9688,-14.6484375,-35.64453125,-54.19921875,-39.0625
0,1746312953417.875,-35.15625,-70.80078125,-30.2734375,-62.01171875
1,1746312953421.7812,-51.26953125,-41.9921875,10.7421875,-70.80078125
2,1746312953425.6875,-34.1796875,-26.85546875,19.04296875,-60.546875
3,1746312953429.5938,-32.71484375,-63.96484375,-40.52734375,-19.53125
4,1746312953433.5,-17.578125,-63.4765625,-50.78125,20.99609375
5,1746312953437.4062,-6.34765625,-63.96484375,-71.77734375,-15.625
6,1746312953441.3125,-43.45703125,-24.4140625,-57.12890625,-47.36328125
7,1746312953445.2188,-42.48046875,-15.13671875,14.6484375,-64.453125
8,1746312953449.125,-29.296875,-54.19921875,19.53125,-40.0390625
9,1746312953453.0312,-45.8984375,-37.59765625,0,-15.625
10,1746312953456.9375,-50.29296875,-37.109375,-25.390625,-63.4765625
11,1746312953460.8438,-63.96484375,-16.6015625,-46.875,-77.1484375
0,1746312953464.75,-33.203125,-39.55078125,-35.64453125,-7.32421875
1,1746312953468.6562,-6.8359375,-76.171875,-72.265625,20.99609375
2,1746312953472.5625,-20.5078125,-78.125,-100.09765625,-1.46484375
3,1746312953476.4688,-20.99609375,-62.98828125,-22.94921875,-73.2421875
4,1746312953480.375,-18.06640625,-22.4609375,39.0625,-70.3125
5,1746312953484.2812,-43.9453125,-10.7421875,8.30078125,-35.64453125
6,1746312953488.1875,-52.24609375,0.48828125,-26.85546875,-50.78125
7,1746312953492.0938,-42.48046875,-22.94921875,-40.52734375,-53.7109375
8,1746312953496,-52.734375,-34.1796875,-70.80078125,-56.640625
9,1746312953499.9062,-45.8984375,-12.6953125,-46.38671875,-30.76171875
10,1746312953503.8125,-7.32421875,-28.3203125,-30.2734375,-6.8359375
11,1746312953507.7188,-14.6484375,-90.33203125,-52.24609375,-31.73828125
0,1746312953511.625,-26.3671875,-92.7734375,-37.59765625,-36.1328125
1,1746312953515.5312,-6.34765625,-28.80859375,-31.73828125,36.1328125
2,1746312953519.4375,-30.2734375,-46.38671875,-15.625,-0.9765625
3,1746312953523.3438,-73.2421875,-79.58984375,-11.71875,-90.33203125
4,1746312953527.25,-89.84375,-24.4140625,-18.06640625,-89.84375
5,1746312953531.1562,-56.640625,21.484375,-31.73828125,-62.5
6,1746312953535.0625,-8.7890625,-0.9765625,-44.921875,-25.390625
7,1746312953538.9688,-9.765625,-45.8984375,-56.640625,-15.13671875
8,1746312953542.875,-29.78515625,-61.03515625,-78.61328125,-19.04296875
9,1746312953546.7812,-47.36328125,-58.59375,-62.98828125,1.46484375
10,1746312953550.6875,-60.05859375,-37.109375,-48.33984375,-13.18359375
11,1746312953554.5938,-45.8984375,-91.30859375,20.01953125,-31.73828125
0,1746312953558.5,-29.78515625,-122.0703125,33.69140625,-16.11328125
1,1746312953562.4062,-21.97265625,-77.63671875,-27.83203125,-33.203125
2,1746312953566.3125,-32.2265625,-34.66796875,-41.50390625,-43.45703125
3,1746312953570.2188,-53.7109375,34.66796875,-35.64453125,-58.59375
4,1746312953574.125,-29.296875,27.34375,-43.45703125,-66.40625
5,1746312953578.0312,-22.94921875,-9.27734375,-24.90234375,-63.96484375
6,1746312953581.9375,-28.80859375,-22.4609375,-33.69140625,-29.296875
7,1746312953585.8438,-11.23046875,-61.5234375,-19.04296875,13.671875
8,1746312953589.75,-16.6015625,-98.6328125,31.73828125,-12.20703125
9,1746312953593.6562,-49.8046875,-62.01171875,-31.25,-73.73046875
10,1746312953597.5625,-60.05859375,0.9765625,-87.890625,-75.68359375
11,1746312953601.4688,-40.0390625,-32.71484375,-64.94140625,-34.66796875
0,1746312953605.375,-29.296875,-76.171875,-56.15234375,-7.32421875
1,1746312953609.2812,-17.08984375,-12.6953125,-36.1328125,-39.55078125
2,1746312953613.1875,-34.1796875,-32.71484375,6.34765625,-53.7109375
3,1746312953617.0938,-58.59375,-48.33984375,-13.18359375,-36.1328125
4,1746312953621,-49.8046875,-15.13671875,-36.1328125,-37.59765625
5,1746312953624.9062,-45.41015625,-25.87890625,-23.4375,-47.36328125
6,1746312953628.8125,-6.34765625,-38.0859375,-5.859375,-20.99609375
7,1746312953632.7188,-1.953125,-55.17578125,-54.6875,-12.6953125
8,1746312953636.625,-36.62109375,-77.63671875,-97.65625,-22.4609375
9,1746312953640.5312,-20.01953125,-78.125,-39.0625,-21.484375
10,1746312953644.4375,-22.94921875,-76.66015625,-33.69140625,-28.3203125
11,1746312953648.3438,-50.29296875,-67.87109375,-53.7109375,-39.0625
0,1746312953652.25,-51.26953125,-32.71484375,-26.85546875,-72.75390625
1,1746312953656.1562,-50.29296875,1.46484375,-7.32421875,-59.5703125
2,1746312953660.0625,-42.48046875,11.71875,9.27734375,-59.5703125
3,1746312953663.9688,-30.76171875,-17.08984375,-4.39453125,-50.78125
4,1746312953667.875,-25.390625,-34.66796875,-29.296875,-25.87890625
5,1746312953671.7812,-22.4609375,-20.5078125,-28.80859375,-2.44140625
6,1746312953675.6875,-20.5078125,-25.87890625,-41.015625,-3.90625
7,1746312953679.5938,-28.3203125,-62.98828125,-74.70703125,-42.96875
8,1746312953683.5,-35.15625,-64.94140625,-56.640625,-47.36328125
9,1746312953687.4062,-28.80859375,-55.17578125,-7.32421875,-41.50390625
10,1746312953691.3125,-33.203125,-50.29296875,-19.04296875,-42.96875
11,1746312953695.2188,-35.64453125,-39.55078125,-38.0859375,-32.2265625
0,1746312953699.125,-38.0859375,-41.9921875,-21.97265625,-45.8984375
1,1746312953703.0312,-48.33984375,-43.9453125,-22.4609375,-58.59375
2,1746312953706.9375,-41.50390625,-53.7109375,-38.0859375,-38.0859375
3,1746312953710.8438,-29.296875,-44.43359375,-33.69140625,-30.76171875
4,1746312953714.75,-36.1328125,-21.97265625,-36.1328125,-53.22265625
5,1746312953718.6562,-50.78125,-31.25,-42.48046875,-43.9453125
6,1746312953722.5625,-56.15234375,-36.62109375,-17.578125,-37.59765625
7,1746312953726.4688,-50.78125,-33.69140625,-1.953125,-63.96484375
8,1746312953730.375,-48.828125,-30.2734375,-3.90625,-68.84765625
9,1746312953734.2812,-50.29296875,-35.64453125,-13.18359375,-54.6875
10,1746312953738.1875,-59.5703125,-45.8984375,-18.5546875,-50.78125
11,1746312953742.0938,-56.15234375,-42.48046875,-8.30078125,-46.875
0,1746312953746,-56.15234375,-32.2265625,-16.6015625,-47.36328125
1,1746312953749.9062,-72.265625,-29.296875,-38.57421875,-70.80078125
2,1746312953753.8125,-71.77734375,-28.80859375,-31.25,-80.56640625
3,1746312953757.7188,-68.84765625,-28.3203125,-18.06640625,-86.9140625
4,1746312953761.625,-77.63671875,-17.578125,-12.20703125,-92.7734375
5,1746312953765.5312,-68.84765625,-6.8359375,-8.7890625,-106.93359375
6,1746312953769.4375,-61.5234375,0.9765625,-23.4375,-105.46875
7,1746312953773.3438,-75.1953125,5.859375,-37.109375,-101.5625
8,1746312953777.25,-87.40234375,4.39453125,-23.92578125,-103.515625
9,1746312953781.1562,-73.73046875,10.7421875,9.765625,-99.12109375
10,1746312953785.0625,-85.44921875,9.765625,6.34765625,-117.67578125
11,1746312953788.9688,-107.421875,0.48828125,-32.2265625,-119.62890625
0,1746312953792.875,-100.09765625,10.25390625,-23.4375,-119.140625
1,1746312953796.7812,-94.7265625,26.3671875,8.7890625,-129.8828125
2,1746312953800.6875,-85.9375,27.83203125,3.41796875,-126.46484375
3,1746312953804.5938,-73.73046875,29.78515625,0.9765625,-109.86328125
4,1746312953808.5,-67.87109375,43.45703125,-1.953125,-108.88671875
5,1746312953812.4062,-62.01171875,58.59375,-6.34765625,-106.4453125
6,1746312953816.3125,-57.12890625,67.3828125,-2.9296875,-82.03125
7,1746312953820.2188,-51.7578125,82.03125,3.90625,-82.03125
8,1746312953824.125,-47.8515625,91.796875,-2.9296875,-98.6328125
9,1746312953828.0312,-32.2265625,81.54296875,-2.9296875,-58.59375
10,1746312953831.9375,-26.3671875,79.58984375,-8.7890625,-44.921875
11,1746312953835.8438,-31.25,85.44921875,-2.44140625,-66.40625
0,1746312953839.75,-23.4375,75.1953125,-2.9296875,-53.22265625
1,1746312953843.6562,-11.23046875,62.01171875,-6.8359375,-43.45703125
2,1746312953847.5625,16.6015625,63.96484375,-1.953125,10.25390625
3,1746312953851.4688,28.80859375,58.59375,-14.6484375,7.32421875
4,1746312953855.375,36.62109375,60.05859375,-8.7890625,-10.25390625
5,1746312953859.2812,43.45703125,75.68359375,0,-2.44140625
6,1746312953863.1875,46.875,68.84765625,-3.41796875,15.13671875
7,1746312953867.0938,43.9453125,63.4765625,-5.859375,37.59765625
8,1746312953871,37.59765625,85.44921875,-12.20703125,19.04296875
9,1746312953874.9062,33.69140625,99.609375,-15.625,34.66796875
10,1746312953878.8125,38.0859375,91.30859375,-14.16015625,65.4296875
11,1746312953882.7188,61.03515625,82.51953125,-13.671875,86.9140625
0,1746312953886.625,71.2890625,78.61328125,-17.578125,97.16796875
1,1746312953890.5312,63.96484375,87.890625,-23.92578125,75.68359375
2,1746312953894.4375,70.80078125,108.88671875,-25.390625,74.21875
3,1746312953898.3438,75.1953125,118.65234375,-31.25,86.9140625
4,1746312953902.25,64.453125,130.859375,-29.296875,118.65234375
5,1746312953906.1562,53.22265625,149.90234375,-22.94921875,113.28125
6,1746312953910.0625,64.453125,139.16015625,-30.2734375,86.9140625
7,1746312953913.9688,84.47265625,135.7421875,-27.83203125,114.2578125
8,1746312953917.875,90.8203125,157.71484375,-28.80859375,114.2578125
9,1746312953921.7812,89.35546875,173.33984375,-36.62109375,111.328125
10,1746312953925.6875,93.75,174.8046875,-30.2734375,126.46484375
11,1746312953929.5938,95.21484375,172.36328125,-22.94921875,117.1875
0,1746312953933.5,109.86328125,179.19921875,-26.3671875,127.9296875
1,1746312953937.4062,116.69921875,182.6171875,-34.1796875,129.8828125
2,1746312953941.3125,112.79296875,167.48046875,-35.64453125,112.79296875
3,1746312953945.2188,117.1875,156.73828125,-34.66796875,109.86328125
4,1746312953949.125,112.79296875,148.4375,-40.0390625,118.1640625
5,1746312953953.0312,111.328125,132.32421875,-35.64453125,137.6953125
6,1746312953956.9375,118.65234375,131.8359375,-26.85546875,129.8828125
7,1746312953960.8438,104.4921875,122.0703125,-31.25,93.26171875
8,1746312953964.75,94.7265625,101.5625,-27.83203125,91.30859375
9,1746312953968.6562,100.09765625,104.00390625,-26.3671875,105.46875
10,1746312953972.5625,87.40234375,104.4921875,-28.3203125,89.84375
11,1746312953976.4688,88.37890625,94.23828125,-22.4609375,50.29296875
0,1746312953980.375,79.1015625,85.44921875,-20.01953125,42.48046875
1,1746312953984.2812,56.15234375,76.171875,-23.92578125,43.45703125
2,1746312953988.1875,41.50390625,72.265625,-25.390625,26.3671875
3,1746312953992.0938,33.69140625,62.98828125,-20.5078125,5.859375
4,1746312953996,31.25,51.7578125,-21.484375,-8.30078125
5,1746312953999.9062,33.69140625,45.8984375,-17.578125,0
6,1746312954003.8125,36.62109375,41.015625,-15.625,-5.37109375
7,1746312954007.7188,29.78515625,27.34375,-18.5546875,-25.390625
8,1746312954011.625,31.73828125,17.08984375,-21.97265625,-39.55078125
9,1746312954015.5312,27.83203125,20.01953125,-18.06640625,-10.25390625
10,1746312954019.4375,24.90234375,17.578125,-17.08984375,2.44140625
11,1746312954023.3438,38.0859375,6.34765625,-23.4375,-8.30078125
0,1746312954027.25,13.671875,-0.9765625,-18.5546875,-13.671875
1,1746312954031.1562,-1.46484375,-4.39453125,-12.20703125,18.06640625
2,1746312954035.0625,18.5546875,-6.34765625,-11.71875,4.39453125
3,1746312954038.9688,4.8828125,-8.7890625,-11.71875,-49.8046875
4,1746312954042.875,-4.8828125,-16.11328125,-14.6484375,-57.6171875
5,1746312954046.7812,-5.37109375,-20.01953125,-16.6015625,-45.41015625
6,1746312954050.6875,-12.20703125,-19.04296875,-15.13671875,-7.32421875
7,1746312954054.5938,-15.13671875,-21.484375,-18.06640625,-21.97265625
8,1746312954058.5,-28.80859375,-25.87890625,-20.5078125,-49.31640625
9,1746312954062.4062,-34.1796875,-23.92578125,-21.484375,-39.55078125
10,1746312954066.3125,-15.13671875,-23.4375,-25.87890625,-28.80859375
11,1746312954070.2188,-6.34765625,-21.97265625,-22.94921875,-24.90234375
0,1746312954074.125,-15.625,-27.83203125,-18.06640625,-12.20703125
1,1746312954078.0312,-15.13671875,-41.015625,-14.6484375,-10.25390625
2,1746312954081.9375,-19.04296875,-33.69140625,-22.94921875,-7.32421875
3,1746312954085.8438,-9.765625,-31.73828125,-28.80859375,-13.671875
4,1746312954089.75,-15.13671875,-37.59765625,-23.4375,-39.55078125
5,1746312954093.6562,-50.78125,-41.9921875,-24.90234375,-22.94921875
6,1746312954097.5625,-30.76171875,-41.015625,-26.85546875,-5.37109375
7,1746312954101.4688,-1.46484375,-38.0859375,-23.92578125,-7.32421875
8,1746312954105.375,-13.671875,-35.64453125,-35.15625,-9.27734375
9,1746312954109.2812,-27.83203125,-46.38671875,-35.64453125,-15.625
10,1746312954113.1875,-43.9453125,-52.24609375,-26.85546875,-25.390625
11,1746312954117.0938,-39.0625,-52.24609375,-28.80859375,-19.53125
0,1746312954121,-21.484375,-58.10546875,-31.25,-3.90625
1,1746312954124.9062,-38.0859375,-58.10546875,-41.015625,6.8359375
2,1746312954128.8125,-44.921875,-62.5,-35.15625,6.8359375
3,1746312954132.7188,-30.2734375,-57.6171875,-22.4609375,-1.953125
4,1746312954136.625,-36.62109375,-54.6875,-26.85546875,-0.9765625
5,1746312954140.5312,-49.8046875,-55.6640625,-29.296875,-28.3203125
6,1746312954144.4375,-42.48046875,-51.26953125,-23.92578125,-47.8515625
7,1746312954148.3438,-41.9921875,-56.15234375,-23.92578125,-27.34375
8,1746312954152.25,-41.015625,-57.12890625,-30.76171875,-9.765625
9,1746312954156.1562,-29.78515625,-51.26953125,-30.76171875,-16.11328125
10,1746312954160.0625,-30.2734375,-52.24609375,-24.90234375,-20.5078125
11,1746312954163.9688,-36.1328125,-48.33984375,-18.5546875,-22.4609375
0,1746312954167.875,-24.90234375,-47.36328125,-21.97265625,-16.6015625
1,1746312954171.7812,-21.97265625,-51.7578125,-25.87890625,-10.7421875
2,1746312954175.6875,-33.203125,-49.31640625,-23.92578125,4.39453125
3,1746312954179.5938,-27.34375,-49.8046875,-24.4140625,11.23046875
4,1746312954183.5,-9.765625,-50.78125,-29.296875,-13.18359375
5,1746312954187.4062,-6.8359375,-46.38671875,-30.2734375,-13.18359375
6,1746312954191.3125,-12.20703125,-53.22265625,-27.34375,1.953125
7,1746312954195.2188,-32.71484375,-61.03515625,-33.69140625,-12.6953125
8,1746312954199.125,-45.41015625,-58.10546875,-40.0390625,-31.73828125
9,1746312954203.0312,-34.1796875,-58.59375,-39.55078125,-32.2265625
10,1746312954206.9375,-36.62109375,-64.94140625,-40.52734375,-30.2734375
11,1746312954210.8438,-68.84765625,-66.40625,-37.109375,-38.0859375
0,1746312954214.75,-68.84765625,-59.5703125,-34.1796875,-26.85546875
1,1746312954218.6562,-41.9921875,-56.640625,-37.109375,-16.11328125
2,1746312954222.5625,-46.38671875,-55.17578125,-36.1328125,-35.64453125
3,1746312954226.4688,-55.6640625,-51.7578125,-36.1328125,-42.48046875
4,1746312954230.375,-54.19921875,-57.6171875,-33.203125,-54.19921875
5,1746312954234.2812,-43.9453125,-61.5234375,-27.34375,-60.546875
6,1746312954238.1875,-47.8515625,-60.546875,-28.3203125,-49.8046875
7,1746312954242.0938,-61.03515625,-60.05859375,-32.71484375,-44.921875
8,1746312954246,-51.7578125,-58.10546875,-30.2734375,-43.9453125
9,1746312954249.9062,-49.31640625,-53.7109375,-25.390625,-42.96875
10,1746312954253.8125,-67.87109375,-52.734375,-18.5546875,-47.36328125
11,1746312954257.7188,-72.265625,-54.19921875,-17.08984375,-64.453125
0,1746312954261.625,-76.66015625,-49.8046875,-21.97265625,-78.125
1,1746312954265.5312,-90.33203125,-46.38671875,-20.99609375,-66.89453125
2,1746312954269.4375,-95.21484375,-45.8984375,-15.13671875,-67.3828125
3,1746312954273.3438,-100.09765625,-43.9453125,-15.13671875,-105.95703125
4,1746312954277.25,-122.55859375,-46.38671875,-23.92578125,-118.1640625
5,1746312954281.1562,-128.41796875,-46.875,-22.94921875,-122.0703125
6,1746312954285.0625,-120.1171875,-47.36328125,-18.5546875,-131.34765625
7,1746312954288.9688,-130.37109375,-52.24609375,-19.04296875,-132.8125
8,1746312954292.875,-139.6484375,-47.8515625,-15.625,-137.20703125
9,1746312954296.7812,-139.6484375,-45.8984375,-16.11328125,-139.16015625
10,1746312954300.6875,-137.20703125,-47.8515625,-20.01953125,-135.7421875
11,1746312954304.5938,-139.6484375,-48.33984375,-13.671875,-133.7890625
0,1746312954308.5,-140.13671875,-44.921875,-13.18359375,-131.8359375
1,1746312954312.4062,-139.16015625,-39.0625,-16.11328125,-134.765625
2,1746312954316.3125,-135.25390625,-34.66796875,-14.6484375,-129.39453125
3,1746312954320.2188,-128.90625,-38.0859375,-18.06640625,-110.3515625
4,1746312954324.125,-121.09375,-45.41015625,-22.94921875,-125.9765625
5,1746312954328.0312,-128.41796875,-40.52734375,-20.5078125,-138.18359375
6,1746312954331.9375,-130.37109375,-39.55078125,-16.11328125,-121.09375
7,1746312954335.8438,-112.3046875,-44.921875,-20.01953125,-98.6328125
8,1746312954339.75,-96.6796875,-49.8046875,-23.92578125,-78.125
9,1746312954343.6562,-86.9140625,-50.78125,-21.97265625,-98.14453125
10,1746312954347.5625,-89.35546875,-45.8984375,-24.4140625,-116.69921875
11,1746312954351.4688,-76.171875,-46.875,-24.90234375,-66.40625
0,1746312954355.375,-63.96484375,-47.8515625,-23.4375,-51.26953125
1,1746312954359.2812,-85.44921875,-52.24609375,-25.390625,-90.8203125
2,1746312954363.1875,-74.21875,-51.7578125,-20.99609375,-74.21875
3,1746312954367.0938,-41.9921875,-46.875,-19.04296875,-53.22265625
4,1746312954371,-35.64453125,-46.875,-23.4375,-58.10546875
5,1746312954374.9062,-23.92578125,-40.0390625,-27.83203125,-44.921875
6,1746312954378.8125,-11.71875,-41.015625,-29.296875,-29.78515625
7,1746312954382.7188,-15.625,-40.0390625,-31.25,-31.73828125
8,1746312954386.625,9.765625,-36.62109375,-35.64453125,-19.53125
9,1746312954390.5312,20.99609375,-42.96875,-33.203125,-4.8828125
10,1746312954394.4375,8.7890625,-38.0859375,-34.66796875,-0.9765625
11,1746312954398.3438,22.94921875,-34.1796875,-32.71484375,14.6484375
0,1746312954402.25,32.2265625,-34.1796875,-30.2734375,35.64453125
1,1746312954406.1562,34.1796875,-40.0390625,-30.76171875,36.1328125
2,1746312954410.0625,22.4609375,-49.8046875,-34.66796875,23.4375
3,1746312954413.9688,21.484375,-51.26953125,-38.57421875,23.92578125
4,1746312954417.875,37.109375,-45.41015625,-36.62109375,28.80859375
5,1746312954421.7812,18.5546875,-38.0859375,-36.62109375,8.7890625
6,1746312954425.6875,15.13671875,-38.0859375,-39.55078125,0.9765625
7,1746312954429.5938,35.15625,-41.50390625,-33.69140625,23.92578125
8,1746312954433.5,34.1796875,-36.62109375,-23.4375,27.83203125
9,1746312954437.4062,40.0390625,-28.80859375,-17.08984375,21.97265625
10,1746312954441.3125,37.59765625,-30.2734375,-18.5546875,25.390625
11,1746312954445.2188,31.25,-32.2265625,-25.390625,16.6015625
0,1746312954449.125,30.2734375,-28.80859375,-24.90234375,0.48828125
1,1746312954453.0312,26.3671875,-28.80859375,-25.87890625,3.90625
2,1746312954456.9375,21.97265625,-30.2734375,-31.25,8.30078125
3,1746312954460.8438,32.2265625,-29.296875,-30.76171875,18.06640625
4,1746312954464.75,32.2265625,-20.99609375,-30.2734375,7.32421875
5,1746312954468.6562,19.53125,-21.484375,-28.3203125,4.8828125
6,1746312954472.5625,29.296875,-28.3203125,-26.85546875,-3.41796875
7,1746312954476.4688,18.5546875,-24.4140625,-25.390625,-20.99609375
8,1746312954480.375,-0.9765625,-22.94921875,-25.87890625,-9.765625
9,1746312954484.2812,4.8828125,-29.296875,-28.80859375,7.32421875
10,1746312954488.1875,0.48828125,-30.76171875,-30.76171875,-4.39453125
11,1746312954492.0938,-13.671875,-27.83203125,-23.92578125,12.20703125
0,1746312954496,-7.32421875,-29.296875,-17.08984375,31.73828125
1,1746312954499.9062,-8.30078125,-31.25,-22.4609375,-4.39453125
2,1746312954503.8125,-3.41796875,-28.3203125,-26.3671875,-20.01953125
3,1746312954507.7188,3.41796875,-24.4140625,-26.3671875,-29.296875
4,1746312954511.625,5.859375,-30.2734375,-26.85546875,-21.97265625
5,1746312954515.5312,-5.859375,-33.69140625,-27.83203125,0
6,1746312954519.4375,-14.16015625,-35.15625,-29.78515625,-10.25390625
7,1746312954523.3438,-16.11328125,-40.0390625,-32.71484375,-36.62109375
8,1746312954527.25,-25.390625,-35.64453125,-30.2734375,-51.7578125
9,1746312954531.1562,-16.11328125,-33.203125,-24.4140625,-29.296875
10,1746312954535.0625,-10.25390625,-35.64453125,-26.3671875,-14.16015625
11,1746312954538.9688,-13.671875,-32.2265625,-27.34375,-6.34765625
0,1746312954542.875,-0.48828125,-26.3671875,-21.97265625,3.90625
1,1746312954546.7812,-4.39453125,-28.80859375,-22.94921875,-15.13671875
2,1746312954550.6875,-13.671875,-31.25,-26.3671875,-18.06640625
3,1746312954554.5938,1.953125,-25.390625,-23.92578125,-16.6015625
4,1746312954558.5,-6.8359375,-27.34375,-22.94921875,-27.83203125
5,1746312954562.4062,-16.11328125,-33.69140625,-20.01953125,-31.25
6,1746312954566.3125,3.90625,-32.2265625,-19.53125,-16.6015625
7,1746312954570.2188,4.39453125,-31.25,-21.97265625,-11.71875
8,1746312954574.125,-10.25390625,-31.73828125,-18.5546875,-2.44140625
9,1746312954578.0312,-15.13671875,-32.2265625,-18.06640625,-17.08984375
10,1746312954581.9375,-23.4375,-33.69140625,-17.578125,-34.1796875
11,1746312954585.8438,-11.71875,-38.57421875,-19.04296875,-28.80859375
0,1746312954589.75,-4.8828125,-39.55078125,-20.99609375,-9.765625
1,1746312954593.6562,-16.6015625,-42.96875,-20.01953125,-0.9765625
2,1746312954597.5625,-32.71484375,-45.8984375,-21.484375,-36.1328125
3,1746312954601.4688,-20.01953125,-39.55078125,-19.04296875,-39.0625
4,1746312954605.375,-10.25390625,-39.55078125,-16.11328125,-34.1796875
5,1746312954609.2812,-28.3203125,-45.8984375,-18.5546875,-40.52734375
6,1746312954613.1875,-20.01953125,-48.828125,-20.99609375,-41.015625
7,1746312954617.0938,-11.71875,-53.22265625,-25.390625,-20.5078125
8,1746312954621,-8.7890625,-68.84765625,-20.99609375,-15.625
9,1746312954624.9062,-5.37109375,-74.70703125,-20.99609375,-25.390625
10,1746312954628.8125,-9.765625,-64.94140625,-21.484375,-17.578125
11,1746312954632.7188,-10.25390625,-55.17578125,-15.625,-23.92578125
0,1746312954636.625,-18.06640625,-42.48046875,-18.5546875,-32.71484375
1,1746312954640.5312,-21.97265625,-43.9453125,-25.390625,-30.76171875
2,1746312954644.4375,-28.3203125,-52.734375,-23.4375,-18.5546875
3,1746312954648.3438,-28.80859375,-51.7578125,-20.5078125,-20.99609375
4,1746312954652.25,-20.5078125,-50.29296875,-20.01953125,-43.9453125
5,1746312954656.1562,-21.484375,-47.8515625,-18.5546875,-32.71484375
6,1746312954660.0625,-30.2734375,-46.38671875,-21.484375,-34.66796875
7,1746312954663.9688,-23.92578125,-47.8515625,-22.4609375,-29.296875
8,1746312954667.875,-18.06640625,-45.41015625,-19.53125,-28.80859375
9,1746312954671.7812,-31.25,-42.96875,-20.5078125,-40.0390625
10,1746312954675.6875,-43.9453125,-39.55078125,-22.94921875,-25.390625
11,1746312954679.5938,-34.1796875,-41.015625,-24.90234375,-32.71484375
0,1746312954683.5,-37.109375,-41.50390625,-22.4609375,-39.55078125
1,1746312954687.4062,-34.66796875,-39.55078125,-21.484375,-39.55078125
2,1746312954691.3125,-16.6015625,-40.0390625,-22.94921875,-39.55078125
3,1746312954695.2188,-26.3671875,-34.66796875,-24.90234375,-35.15625
4,1746312954699.125,-26.85546875,-31.73828125,-25.87890625,-22.94921875
5,1746312954703.0312,-17.08984375,-35.15625,-20.01953125,-10.7421875
6,1746312954706.9375,-27.34375,-39.55078125,-19.04296875,-21.97265625
7,1746312954710.8438,-20.99609375,-41.50390625,-25.390625,-35.15625
8,1746312954714.75,-12.20703125,-38.0859375,-26.85546875,-25.390625
9,1746312954718.6562,-20.99609375,-31.25,-25.87890625,-26.3671875
10,1746312954722.5625,-25.87890625,-27.83203125,-23.92578125,-35.15625
11,1746312954726.4688,-21.484375,-28.3203125,-21.484375,-39.55078125
0,1746312954730.375,-30.2734375,-31.25,-23.4375,-39.0625
1,1746312954734.2812,-26.85546875,-35.15625,-25.87890625,-19.53125
2,1746312954738.1875,-15.13671875,-41.50390625,-28.3203125,-33.203125
3,1746312954742.0938,-35.64453125,-39.55078125,-28.80859375,-31.73828125
4,1746312954746,-40.52734375,-35.15625,-28.80859375,-17.578125
5,1746312954749.9062,-13.18359375,-32.2265625,-22.94921875,-25.390625
6,1746312954753.8125,-11.71875,-28.3203125,-16.6015625,-5.859375
7,1746312954757.7188,-17.08984375,-30.76171875,-22.4609375,-22.94921875
8,1746312954761.625,-20.01953125,-29.296875,-25.390625,-38.0859375
9,1746312954765.5312,-25.87890625,-25.87890625,-22.4609375,-13.18359375
10,1746312954769.4375,-24.4140625,-27.34375,-21.484375,-15.13671875
11,1746312954773.3438,-38.0859375,-26.85546875,-26.85546875,-26.85546875
0,1746312954777.25,-34.66796875,-26.85546875,-30.2734375,-8.7890625
1,1746312954781.1562,-3.90625,-25.87890625,-23.92578125,-0.48828125
2,1746312954785.0625,-11.23046875,-26.3671875,-22.94921875,-14.6484375
3,1746312954788.9688,-27.34375,-27.83203125,-24.4140625,-24.4140625
4,1746312954792.875,-23.92578125,-25.390625,-20.01953125,-33.203125
5,1746312954796.7812,-20.5078125,-20.99609375,-22.94921875,-36.1328125
6,1746312954800.6875,0.48828125,-25.390625,-27.34375,-27.83203125
7,1746312954804.5938,-3.41796875,-30.2734375,-26.3671875,-16.11328125
8,1746312954808.5,-25.87890625,-27.83203125,-27.83203125,-24.4140625
9,1746312954812.4062,-22.94921875,-25.87890625,-27.34375,-34.66796875
10,1746312954816.3125,-20.5078125,-20.99609375,-25.390625,-22.4609375
11,1746312954820.2188,-19.53125,-20.99609375,-25.87890625,-15.13671875
0,1746312954824.125,-29.78515625,-21.484375,-28.80859375,-18.5546875
1,1746312954828.0312,-34.66796875,-23.4375,-30.76171875,-26.3671875
2,1746312954831.9375,-40.52734375,-28.3203125,-29.78515625,-46.875
3,1746312954835.8438,-31.25,-32.2265625,-31.73828125,-41.9921875
4,1746312954839.75,-30.76171875,-29.78515625,-31.73828125,-1.953125
5,1746312954843.6562,-43.45703125,-28.80859375,-25.87890625,3.41796875
6,1746312954847.5625,-23.4375,-32.2265625,-29.78515625,-7.8125
7,1746312954851.4688,-23.92578125,-33.203125,-37.109375,-6.34765625
8,1746312954855.375,-30.76171875,-36.62109375,-30.2734375,-27.83203125
9,1746312954859.2812,-37.59765625,-34.66796875,-25.87890625,-41.9921875
10,1746312954863.1875,-36.1328125,-32.71484375,-30.2734375,-32.71484375
11,1746312954867.0938,-18.06640625,-33.69140625,-29.78515625,-26.85546875
0,1746312954871,-13.18359375,-33.203125,-22.94921875,-20.5078125
1,1746312954874.9062,-33.203125,-32.71484375,-21.484375,-28.3203125
2,1746312954878.8125,-39.55078125,-30.2734375,-25.87890625,-44.921875
3,1746312954882.7188,-25.390625,-28.80859375,-27.34375,-21.484375
4,1746312954886.625,-20.99609375,-27.34375,-25.87890625,-4.8828125
5,1746312954890.5312,-25.87890625,-24.90234375,-22.94921875,-26.3671875
6,1746312954894.4375,-38.0859375,-30.76171875,-22.4609375,-35.64453125
7,1746312954898.3438,-41.9921875,-32.2265625,-25.390625,-23.92578125
8,1746312954902.25,-31.73828125,-29.296875,-25.87890625,-26.3671875
9,1746312954906.1562,-28.3203125,-33.203125,-31.25,-32.71484375
10,1746312954910.0625,-25.87890625,-29.78515625,-32.2265625,-35.64453125
11,1746312954913.9688,-36.1328125,-22.4609375,-26.3671875,-36.1328125
0,1746312954917.875,-34.1796875,-23.92578125,-24.90234375,-36.62109375
1,1746312954921.7812,-44.43359375,-24.90234375,-22.4609375,-51.7578125
2,1746312954925.6875,-62.01171875,-22.4609375,-18.5546875,-64.453125
3,1746312954929.5938,-41.9921875,-17.08984375,-17.08984375,-53.22265625
4,1746312954933.5,-40.0390625,-14.6484375,-11.71875,-48.828125
5,1746312954937.4062,-56.640625,-20.01953125,-12.20703125,-61.5234375
6,1746312954941.3125,-60.05859375,-26.3671875,-12.20703125,-69.3359375
7,1746312954945.2188,-71.77734375,-26.3671875,-10.7421875,-77.1484375
8,1746312954949.125,-74.21875,-24.90234375,-17.578125,-73.2421875
9,1746312954953.0312,-67.87109375,-27.83203125,-18.06640625,-75.1953125
10,1746312954956.9375,-92.7734375,-23.92578125,-11.71875,-94.23828125
11,1746312954960.8438,-109.86328125,-22.4609375,-8.7890625,-108.88671875
0,1746312954964.75,-113.76953125,-30.76171875,-11.23046875,-124.51171875
1,1746312954968.6562,-121.09375,-33.69140625,-8.30078125,-111.81640625
2,1746312954972.5625,-127.44140625,-28.80859375,-3.90625,-116.69921875
3,1746312954976.4688,-122.55859375,-29.78515625,-8.30078125,-126.953125
4,1746312954980.375,-117.67578125,-26.85546875,-9.765625,-107.91015625
5,1746312954984.2812,-107.91015625,-15.625,-6.34765625,-109.86328125
6,1746312954988.1875,-115.234375,-19.53125,-14.16015625,-135.7421875
7,1746312954992.0938,-142.578125,-27.34375,-18.5546875,-169.43359375
8,1746312954996,-132.32421875,-21.484375,-9.27734375,-157.71484375
9,1746312954999.9062,-123.046875,-27.83203125,-10.25390625,-127.44140625
10,1746312955003.8125,-120.1171875,-23.4375,-17.08984375,-116.69921875
11,1746312955007.7188,-107.421875,-20.5078125,-23.4375,-122.55859375
0,1746312955011.625,-117.67578125,-31.73828125,-22.4609375,-117.67578125
1,1746312955015.5312,-115.234375,-32.2265625,-21.484375,-108.88671875
2,1746312955019.4375,-91.30859375,-30.2734375,-29.296875,-101.07421875
3,1746312955023.3438,-79.58984375,-26.85546875,-33.69140625,-99.12109375
4,1746312955027.25,-85.9375,-25.390625,-31.73828125,-101.07421875
5,1746312955031.1562,-78.61328125,-28.80859375,-26.3671875,-78.125
6,1746312955035.0625,-54.19921875,-28.3203125,-29.78515625,-55.6640625
7,1746312955038.9688,-42.96875,-27.34375,-31.25,-48.828125
8,1746312955042.875,-49.31640625,-30.2734375,-26.3671875,-48.828125
9,1746312955046.7812,-39.0625,-30.2734375,-29.296875,-34.1796875
10,1746312955050.6875,-6.34765625,-24.4140625,-30.76171875,-1.46484375
11,1746312955054.5938,-2.44140625,-25.87890625,-29.296875,21.484375
0,1746312955058.5,-6.34765625,-21.97265625,-31.73828125,6.34765625
1,1746312955062.4062,9.27734375,-14.6484375,-31.25,-4.8828125
2,1746312955066.3125,27.34375,-18.06640625,-31.25,10.7421875
3,1746312955070.2188,35.64453125,-19.04296875,-30.2734375,23.4375
4,1746312955074.125,29.296875,-24.90234375,-32.2265625,27.34375
5,1746312955078.0312,17.08984375,-23.92578125,-34.66796875,9.765625
6,1746312955081.9375,10.25390625,-20.99609375,-39.0625,13.671875
7,1746312955085.8438,27.83203125,-21.484375,-34.1796875,42.96875
8,1746312955089.75,36.1328125,-15.13671875,-32.71484375,47.36328125
9,1746312955093.6562,25.87890625,-17.578125,-39.55078125,43.45703125
10,1746312955097.5625,16.11328125,-18.06640625,-40.0390625,34.66796875
11,1746312955101.4688,40.52734375,-16.11328125,-38.0859375,39.55078125
0,1746312955105.375,41.9921875,-15.13671875,-35.64453125,34.66796875
1,1746312955109.2812,14.16015625,-13.671875,-36.62109375,16.6015625
2,1746312955113.1875,16.6015625,-19.53125,-35.15625,18.06640625
3,1746312955117.0938,16.11328125,-18.06640625,-34.66796875,34.1796875
4,1746312955121,38.0859375,-14.16015625,-36.1328125,22.94921875
5,1746312955124.9062,37.59765625,-14.16015625,-33.69140625,21.484375
6,1746312955128.8125,10.7421875,-18.06640625,-32.71484375,33.69140625
7,1746312955132.7188,18.06640625,-24.4140625,-36.62109375,29.296875
8,1746312955136.625,15.625,-22.94921875,-39.55078125,34.66796875
9,1746312955140.5312,-1.46484375,-22.94921875,-37.59765625,29.78515625
10,1746312955144.4375,-12.20703125,-20.99609375,-40.0390625,8.7890625
11,1746312955148.3438,12.20703125,-12.6953125,-35.64453125,20.01953125
0,1746312955152.25,22.94921875,-9.765625,-28.80859375,28.80859375
1,1746312955156.1562,6.8359375,-11.71875,-28.3203125,10.25390625
2,1746312955160.0625,-12.6953125,-18.5546875,-27.83203125,-8.7890625
3,1746312955163.9688,-13.671875,-23.92578125,-26.85546875,-7.8125
4,1746312955167.875,-1.46484375,-22.4609375,-30.2734375,-6.8359375
5,1746312955171.7812,-3.90625,-15.625,-32.2265625,-8.7890625
6,1746312955175.6875,-1.46484375,-17.08984375,-32.2265625,-1.46484375
7,1746312955179.5938,5.37109375,-25.390625,-33.69140625,4.8828125
8,1746312955183.5,1.953125,-19.53125,-28.80859375,12.20703125
9,1746312955187.4062,-3.90625,-17.578125,-24.90234375,4.39453125
10,1746312955191.3125,4.39453125,-25.390625,-24.90234375,-3.41796875
11,1746312955195.2188,8.30078125,-25.87890625,-24.90234375,4.39453125
0,1746312955199.125,7.8125,-22.94921875,-23.4375,14.16015625
1,1746312955203.0312,-7.8125,-21.484375,-20.01953125,-5.37109375
2,1746312955206.9375,-29.296875,-17.08984375,-20.01953125,-16.11328125
3,1746312955210.8438,-12.20703125,-21.97265625,-25.390625,-7.32421875
4,1746312955214.75,15.13671875,-23.92578125,-24.90234375,-2.9296875
5,1746312955218.6562,7.8125,-18.5546875,-22.4609375,0
6,1746312955222.5625,-14.16015625,-22.94921875,-20.99609375,0
7,1746312955226.4688,-20.99609375,-23.92578125,-21.484375,-11.23046875
8,1746312955230.375,-21.97265625,-21.97265625,-22.4609375,-12.6953125
9,1746312955234.2812,-4.8828125,-25.390625,-23.4375,-5.859375
10,1746312955238.1875,0.48828125,-20.99609375,-23.4375,0.9765625
11,1746312955242.0938,-15.13671875,-21.484375,-28.80859375,4.8828125
0,1746312955246,-25.87890625,-26.3671875,-30.2734375,4.39453125
1,1746312955249.9062,-24.90234375,-31.25,-33.69140625,-9.765625
2,1746312955253.8125,-22.94921875,-26.3671875,-33.203125,-25.390625
3,1746312955257.7188,-35.64453125,-25.390625,-30.76171875,-18.06640625
4,1746312955261.625,-30.76171875,-32.2265625,-25.87890625,-17.08984375
5,1746312955265.5312,-19.04296875,-27.83203125,-23.92578125,-34.1796875
6,1746312955269.4375,-7.32421875,-25.390625,-26.85546875,-11.71875
7,1746312955273.3438,-23.4375,-20.5078125,-27.34375,-19.53125
8,1746312955277.25,-44.921875,-25.87890625,-31.73828125,-36.62109375
9,1746312955281.1562,-38.0859375,-36.62109375,-31.73828125,-23.92578125
10,1746312955285.0625,-16.6015625,-25.87890625,-26.3671875,-22.4609375
11,1746312955288.9688,-15.13671875,-21.97265625,-23.92578125,-28.80859375
0,1746312955292.875,-18.5546875,-31.25,-27.34375,-31.25
1,1746312955296.7812,-20.5078125,-27.34375,-27.83203125,-35.15625
2,1746312955300.6875,-22.4609375,-19.04296875,-29.78515625,-27.34375
3,1746312955304.5938,-15.625,-23.4375,-32.71484375,-18.5546875
4,1746312955308.5,-47.8515625,-30.2734375,-31.73828125,-41.9921875
5,1746312955312.4062,-68.84765625,-30.2734375,-30.2734375,-49.31640625
6,1746312955316.3125,-37.109375,-27.83203125,-28.80859375,-32.2265625
7,1746312955320.2188,-26.3671875,-28.80859375,-27.34375,-24.90234375
8,1746312955324.125,-27.83203125,-23.4375,-30.76171875,-24.90234375
9,1746312955328.0312,-27.83203125,-19.04296875,-27.83203125,-17.08984375
10,1746312955331.9375,-20.01953125,-20.01953125,-21.484375,-4.39453125
11,1746312955335.8438,-15.625,-18.06640625,-22.94921875,-9.27734375
0,1746312955339.75,-28.3203125,-20.01953125,-26.85546875,-13.18359375
1,1746312955343.6562,-25.390625,-25.87890625,-30.2734375,-32.71484375
2,1746312955347.5625,-10.25390625,-24.90234375,-20.5078125,-29.296875
3,1746312955351.4688,-1.953125,-21.97265625,-18.06640625,-18.5546875
4,1746312955355.375,-14.6484375,-22.94921875,-22.94921875,-37.59765625
5,1746312955359.2812,-30.76171875,-21.484375,-23.92578125,-21.97265625
