index,unixTimestamp,TP9,AF7,AF8,TP10
0,1746312979246,0,-0.48828125,0,-0.48828125
1,1746312979249.9062,-0.48828125,0,0,-0.48828125
2,1746312979253.8125,-1.953125,0.48828125,-3.90625,5.859375
3,1746312979257.7188,5.37109375,-3.41796875,8.7890625,-14.16015625
4,1746312979261.625,-29.78515625,15.13671875,-42.96875,78.125
5,1746312979265.5312,-50.29296875,18.06640625,-87.890625,200.68359375
6,1746312979269.4375,-20.99609375,-9.27734375,-24.90234375,187.5
7,1746312979273.3438,-59.08203125,-13.671875,-12.6953125,182.12890625
8,1746312979277.25,-67.87109375,-35.64453125,-28.3203125,178.22265625
9,1746312979281.1562,-33.69140625,-57.12890625,-44.921875,159.1796875
10,1746312979285.0625,-25.390625,-52.24609375,-74.70703125,166.015625
11,1746312979288.9688,-27.83203125,-27.83203125,-52.734375,181.640625
0,1746312979292.875,-53.22265625,16.11328125,-33.69140625,159.66796875
1,1746312979296.7812,-72.265625,-26.3671875,-55.17578125,128.41796875
2,1746312979300.6875,-84.47265625,-43.45703125,-65.4296875,114.74609375
3,1746312979304.5938,-73.2421875,29.296875,-36.62109375,145.5078125
4,1746312979308.5,-46.38671875,-8.30078125,-30.2734375,147.94921875
5,1746312979312.4062,-6.8359375,-63.96484375,-17.08984375,149.90234375
6,1746312979316.3125,13.671875,-83.984375,-37.59765625,186.5234375
7,1746312979320.2188,-63.4765625,-25.390625,-67.87109375,182.12890625
8,1746312979324.125,-109.86328125,5.859375,-48.33984375,166.9921875
9,1746312979328.0312,-78.61328125,-34.1796875,-33.203125,139.16015625
10,1746312979331.9375,-54.19921875,-8.30078125,-18.5546875,121.58203125
11,1746312979335.8438,-58.59375,-12.20703125,-16.6015625,162.59765625
0,1746312979339.75,-58.59375,-15.13671875,-40.52734375,213.8671875
1,1746312979343.6562,-14.16015625,-79.1015625,-49.8046875,178.22265625
2,1746312979347.5625,-11.71875,-99.609375,-11.71875,128.41796875
3,1746312979351.4688,-72.75390625,-16.6015625,-11.71875,141.6015625
4,1746312979355.375,-96.19140625,4.8828125,-36.62109375,142.08984375
5,1746312979359.2812,-49.31640625,-33.69140625,-37.109375,113.76953125
6,1746312979363.1875,-46.38671875,-81.54296875,-37.109375,113.76953125
7,1746312979367.0938,-99.12109375,-31.73828125,-45.41015625,122.55859375
8,1746312979371,-70.80078125,-1.953125,-28.3203125,135.7421875
9,1746312979374.9062,-28.80859375,-74.21875,-21.484375,151.85546875
10,1746312979378.8125,-33.69140625,-71.2890625,-37.109375,108.3984375
11,1746312979382.7188,-79.58984375,-27.34375,-56.640625,94.7265625
0,1746312979386.625,-93.75,-37.59765625,-59.08203125,113.28125
1,1746312979390.5312,-72.265625,-35.15625,-37.109375,83.49609375
2,1746312979394.4375,-43.9453125,-13.18359375,-26.85546875,79.1015625
3,1746312979398.3438,-24.4140625,-37.109375,-12.20703125,77.1484375
4,1746312979402.25,-37.59765625,-36.1328125,-15.13671875,65.91796875
5,1746312979406.1562,-74.70703125,-29.296875,-35.64453125,61.5234375
6,1746312979410.0625,-130.37109375,-57.6171875,-27.34375,48.33984375
7,1746312979413.9688,-97.16796875,-81.54296875,-42.96875,71.2890625
8,1746312979417.875,-25.87890625,-56.640625,-59.08203125,66.89453125
9,1746312979421.7812,13.18359375,14.6484375,-58.10546875,47.36328125
10,1746312979425.6875,77.63671875,5.859375,-53.22265625,41.50390625
11,1746312979429.5938,101.5625,-11.23046875,0.9765625,27.83203125
0,1746312979433.5,81.54296875,12.6953125,1.953125,21.97265625
1,1746312979437.4062,50.29296875,-15.13671875,-15.625,23.4375
2,1746312979441.3125,28.80859375,-42.48046875,8.7890625,34.1796875
3,1746312979445.2188,20.01953125,-79.58984375,-0.48828125,56.15234375
4,1746312979449.125,-14.16015625,-68.84765625,-58.10546875,55.6640625
5,1746312979453.0312,-19.04296875,0,-65.91796875,23.4375
6,1746312979456.9375,-3.41796875,-8.30078125,-21.97265625,5.859375
7,1746312979460.8438,0.9765625,-12.20703125,4.8828125,4.39453125
8,1746312979464.75,-45.8984375,-49.31640625,-3.41796875,35.15625
9,1746312979468.6562,-97.65625,-49.8046875,-31.73828125,56.640625
10,1746312979472.5625,-90.8203125,6.34765625,-20.5078125,17.578125
11,1746312979476.4688,-66.89453125,-0.48828125,-8.7890625,-1.46484375
0,1746312979480.375,-33.203125,-7.8125,-34.66796875,-5.37109375
1,1746312979484.2812,-19.04296875,19.04296875,-61.5234375,-21.484375
2,1746312979488.1875,-83.49609375,23.4375,-41.9921875,-1.46484375
3,1746312979492.0938,-96.6796875,-37.59765625,-52.734375,-5.859375
4,1746312979496,-24.90234375,-131.34765625,-37.59765625,-5.859375
5,1746312979499.9062,-41.50390625,-105.46875,24.90234375,-10.7421875
6,1746312979503.8125,-83.0078125,7.8125,-15.625,-26.3671875
7,1746312979507.7188,-96.6796875,-17.08984375,-74.70703125,-12.20703125
8,1746312979511.625,-83.0078125,-21.484375,-47.36328125,-4.8828125
9,1746312979515.5312,-62.01171875,30.76171875,-10.25390625,-15.13671875
10,1746312979519.4375,-54.6875,8.7890625,-10.7421875,-27.34375
11,1746312979523.3438,-39.55078125,-70.80078125,18.06640625,-6.8359375
0,1746312979527.25,-23.4375,-144.04296875,-22.94921875,-1.46484375
1,1746312979531.1562,-45.8984375,-111.328125,-52.24609375,-12.20703125
2,1746312979535.0625,-82.03125,19.04296875,-6.8359375,-9.765625
3,1746312979538.9688,-70.3125,55.6640625,-16.11328125,-14.6484375
4,1746312979542.875,-31.73828125,-11.71875,-47.36328125,6.8359375
5,1746312979546.7812,-27.83203125,-24.4140625,-71.2890625,-4.39453125
6,1746312979550.6875,-54.6875,-12.20703125,-46.875,-45.8984375
7,1746312979554.5938,-60.546875,-31.73828125,-0.48828125,-43.9453125
8,1746312979558.5,-25.87890625,-69.82421875,0.9765625,-20.99609375
9,1746312979562.4062,-17.08984375,-111.328125,-30.76171875,-11.71875
10,1746312979566.3125,-62.98828125,-21.97265625,-34.66796875,19.04296875
11,1746312979570.2188,-58.10546875,45.8984375,-63.4765625,4.8828125
0,1746312979574.125,-66.89453125,1.953125,-90.33203125,-51.7578125
1,1746312979578.0312,-76.171875,-7.32421875,-27.34375,-10.7421875
2,1746312979581.9375,-28.3203125,-62.5,-0.9765625,18.5546875
3,1746312979585.8438,-48.828125,-82.51953125,-52.24609375,-15.13671875
4,1746312979589.75,-113.28125,5.37109375,-79.1015625,-33.203125
5,1746312979593.6562,-86.9140625,38.0859375,-37.59765625,-8.7890625
6,1746312979597.5625,-49.31640625,12.20703125,-25.87890625,-5.37109375
7,1746312979601.4688,-86.42578125,-10.7421875,-19.04296875,-36.1328125
8,1746312979605.375,-78.61328125,-38.0859375,4.39453125,-28.3203125
9,1746312979609.2812,-78.125,-30.2734375,-10.7421875,-17.08984375
10,1746312979613.1875,-130.859375,-50.29296875,-42.48046875,-27.34375
11,1746312979617.0938,-139.6484375,-57.6171875,-46.38671875,-16.11328125
0,1746312979621,-109.86328125,-56.640625,-42.48046875,16.11328125
1,1746312979624.9062,-83.49609375,-59.5703125,-59.08203125,48.33984375
2,1746312979628.8125,-78.125,-39.55078125,-52.734375,16.11328125
3,1746312979632.7188,-57.6171875,-33.203125,-27.83203125,-35.64453125
4,1746312979636.625,-84.9609375,-47.36328125,-35.64453125,-46.38671875
5,1746312979640.5312,-129.8828125,-45.8984375,-26.3671875,-50.78125
6,1746312979644.4375,-123.046875,-37.109375,-20.01953125,-42.48046875
7,1746312979648.3438,-89.84375,-21.484375,-41.9921875,-36.62109375
8,1746312979652.25,-28.3203125,-25.390625,-29.78515625,-2.44140625
9,1746312979656.1562,-5.859375,-27.34375,-51.26953125,9.27734375
10,1746312979660.0625,-95.703125,-34.1796875,-69.82421875,-0.48828125
11,1746312979663.9688,-139.6484375,-40.52734375,-13.671875,-6.8359375
0,1746312979667.875,-114.74609375,-3.90625,-31.25,-19.04296875
1,1746312979671.7812,-123.046875,-33.69140625,-58.59375,-5.859375
2,1746312979675.6875,-117.67578125,-56.15234375,-29.78515625,-23.92578125
3,1746312979679.5938,-100.09765625,-38.57421875,-12.6953125,-35.64453125
4,1746312979683.5,-91.30859375,-63.4765625,-40.0390625,-0.48828125
5,1746312979687.4062,-54.6875,-35.64453125,-67.87109375,26.3671875
6,1746312979691.3125,-61.5234375,-36.1328125,-63.4765625,17.578125
7,1746312979695.2188,-98.6328125,-38.57421875,-49.8046875,5.37109375
8,1746312979699.125,-105.95703125,4.8828125,-52.24609375,-9.27734375
9,1746312979703.0312,-101.5625,-45.41015625,-50.78125,-5.859375
10,1746312979706.9375,-94.7265625,-63.96484375,-49.8046875,11.23046875
11,1746312979710.8438,-97.16796875,-63.4765625,-60.546875,-18.5546875
0,1746312979714.75,-116.2109375,-97.65625,-58.10546875,-51.7578125
1,1746312979718.6562,-117.1875,-34.66796875,-56.640625,-48.828125
2,1746312979722.5625,-87.890625,-3.41796875,-45.41015625,-8.30078125
3,1746312979726.4688,-59.5703125,-59.5703125,-80.56640625,18.06640625
4,1746312979730.375,-89.35546875,-93.75,-109.86328125,-23.4375
5,1746312979734.2812,-93.75,-23.4375,-102.05078125,-27.83203125
6,1746312979738.1875,-90.8203125,-22.94921875,-79.58984375,-14.6484375
7,1746312979742.0938,-121.09375,-83.0078125,-19.04296875,-17.08984375
8,1746312979746,-93.75,-112.3046875,-24.4140625,-9.765625
9,1746312979749.9062,-125,-107.421875,-76.66015625,-22.94921875
10,1746312979753.8125,-143.06640625,-63.4765625,-48.33984375,-24.90234375
11,1746312979757.7188,-126.46484375,-38.0859375,-41.9921875,-16.6015625
0,1746312979761.625,-121.09375,-58.10546875,-95.703125,-14.6484375
1,1746312979765.5312,-76.66015625,-55.17578125,-101.07421875,-22.94921875
2,1746312979769.4375,-49.8046875,-32.71484375,-66.89453125,-47.36328125
3,1746312979773.3438,-66.89453125,-72.75390625,-50.78125,-42.48046875
4,1746312979777.25,-90.33203125,-74.21875,-56.640625,-17.08984375
5,1746312979781.1562,-97.16796875,-126.46484375,-63.96484375,0.48828125
6,1746312979785.0625,-127.44140625,-94.7265625,-61.03515625,-2.44140625
7,1746312979788.9688,-118.65234375,39.0625,-81.0546875,-10.7421875
8,1746312979792.875,-88.8671875,5.37109375,-74.21875,-7.32421875
9,1746312979796.7812,-93.75,-38.57421875,-37.59765625,-24.4140625
10,1746312979800.6875,-86.9140625,-47.36328125,-12.20703125,-18.5546875
11,1746312979804.5938,-91.796875,-54.6875,-17.578125,20.99609375
0,1746312979808.5,-104.98046875,-24.90234375,-45.41015625,39.0625
1,1746312979812.4062,-79.58984375,-46.38671875,-57.6171875,43.45703125
2,1746312979816.3125,-49.8046875,-97.16796875,-69.3359375,54.19921875
3,1746312979820.2188,-77.1484375,-11.23046875,-72.265625,50.29296875
4,1746312979824.125,-75.1953125,1.953125,-40.52734375,63.4765625
5,1746312979828.0312,-59.5703125,-70.80078125,-20.01953125,41.50390625
6,1746312979831.9375,-109.86328125,-82.03125,-35.64453125,17.08984375
7,1746312979835.8438,-82.03125,-30.76171875,-21.484375,22.94921875
8,1746312979839.75,-25.390625,22.94921875,-11.23046875,-1.953125
9,1746312979843.6562,-24.4140625,-12.6953125,-12.6953125,-4.8828125
10,1746312979847.5625,-58.59375,-40.52734375,-38.0859375,6.34765625
11,1746312979851.4688,-67.87109375,-39.0625,-66.89453125,18.5546875
0,1746312979855.375,-87.40234375,-31.25,-43.45703125,0.48828125
1,1746312979859.2812,-85.9375,-18.06640625,-23.4375,-11.71875
2,1746312979863.1875,-24.90234375,-14.16015625,-22.94921875,23.4375
3,1746312979867.0938,-6.8359375,-35.15625,-30.76171875,51.26953125
4,1746312979871,-85.44921875,-31.25,-62.01171875,27.34375
5,1746312979874.9062,-118.65234375,17.578125,-51.7578125,12.6953125
6,1746312979878.8125,-64.453125,20.01953125,-51.7578125,1.46484375
7,1746312979882.7188,-34.1796875,2.44140625,-47.8515625,-3.41796875
8,1746312979886.625,-49.31640625,-64.94140625,-12.6953125,2.44140625
9,1746312979890.5312,-83.0078125,-83.49609375,-16.11328125,-25.390625
10,1746312979894.4375,-109.375,-21.97265625,-67.3828125,-32.2265625
11,1746312979898.3438,-95.21484375,-51.26953125,-83.984375,-30.2734375
0,1746312979902.25,-88.37890625,-21.97265625,-65.4296875,-56.640625
1,1746312979906.1562,-102.05078125,30.76171875,-41.9921875,-29.296875
2,1746312979910.0625,-71.77734375,-37.59765625,-37.59765625,-3.41796875
3,1746312979913.9688,-3.41796875,2.44140625,-10.25390625,2.9296875
4,1746312979917.875,-60.05859375,39.0625,-44.43359375,-30.2734375
5,1746312979921.7812,-104.00390625,12.20703125,-56.15234375,-40.0390625
6,1746312979925.6875,-55.6640625,-43.9453125,-32.71484375,-12.6953125
7,1746312979929.5938,-73.73046875,-46.38671875,-48.33984375,-38.0859375
8,1746312979933.5,-46.875,43.9453125,-25.87890625,6.34765625
9,1746312979937.4062,-32.2265625,25.87890625,-69.3359375,42.96875
10,1746312979941.3125,-89.84375,4.39453125,-91.30859375,-33.203125
11,1746312979945.2188,-85.9375,-13.671875,-36.1328125,-20.99609375
0,1746312979949.125,-76.171875,-55.17578125,6.8359375,31.25
1,1746312979953.0312,-55.17578125,11.71875,0,0.48828125
2,1746312979956.9375,-37.109375,-4.8828125,-27.83203125,-9.765625
3,1746312979960.8438,-58.59375,-25.87890625,-36.1328125,13.671875
4,1746312979964.75,-99.609375,59.08203125,-84.47265625,-27.83203125
5,1746312979968.6562,-82.51953125,0,-118.1640625,-52.734375
6,1746312979972.5625,-52.24609375,4.8828125,-86.9140625,-32.2265625
7,1746312979976.4688,-107.421875,29.296875,-48.828125,-61.03515625
8,1746312979980.375,-103.02734375,-21.484375,9.765625,-35.64453125
9,1746312979984.2812,-67.87109375,-15.13671875,30.76171875,-12.6953125
10,1746312979988.1875,-63.96484375,20.01953125,-23.92578125,-44.43359375
11,1746312979992.0938,-68.84765625,77.1484375,-97.16796875,-40.52734375
0,1746312979996,-80.56640625,74.21875,-84.9609375,-72.75390625
1,1746312979999.9062,-60.546875,1.953125,-23.92578125,-72.265625
2,1746312980003.8125,-27.83203125,30.76171875,-46.38671875,-14.6484375
3,1746312980007.7188,-27.83203125,67.87109375,-48.828125,-4.8828125
4,1746312980011.625,-23.4375,29.296875,-41.9921875,-9.27734375
5,1746312980015.5312,-55.17578125,-23.92578125,-52.24609375,-10.7421875
6,1746312980019.4375,-89.84375,-30.2734375,-43.45703125,-42.96875
7,1746312980023.3438,-65.4296875,54.19921875,-20.99609375,-35.15625
8,1746312980027.25,-95.21484375,79.1015625,-18.06640625,-29.296875
9,1746312980031.1562,-158.203125,25.87890625,-46.875,-61.5234375
10,1746312980035.0625,-147.4609375,-28.80859375,-93.75,-40.52734375
11,1746312980038.9688,-107.421875,-91.796875,-106.93359375,-12.6953125
0,1746312980042.875,-145.01953125,-54.6875,-29.296875,-66.40625
1,1746312980046.7812,-190.4296875,1.46484375,2.44140625,-117.67578125
2,1746312980050.6875,-159.1796875,-34.1796875,-18.06640625,-98.6328125
3,1746312980054.5938,-125.9765625,-119.62890625,-13.18359375,-67.3828125
4,1746312980058.5,-111.328125,-95.21484375,-37.109375,-27.34375
5,1746312980062.4062,-75.1953125,11.71875,-108.3984375,-14.16015625
6,1746312980066.3125,-80.078125,-67.3828125,-83.0078125,-54.6875
7,1746312980070.2188,-125.9765625,-89.35546875,-19.53125,-86.9140625
8,1746312980074.125,-118.1640625,-35.15625,1.46484375,-77.1484375
9,1746312980078.0312,-108.88671875,-7.32421875,-40.0390625,-63.4765625
10,1746312980081.9375,-93.26171875,45.41015625,-70.3125,-47.36328125
11,1746312980085.8438,-78.125,-29.296875,-30.2734375,-44.921875
0,1746312980089.75,-84.47265625,-79.58984375,-13.18359375,-33.69140625
1,1746312980093.6562,-73.2421875,-38.0859375,-32.2265625,-39.55078125
2,1746312980097.5625,-90.8203125,-35.64453125,-90.33203125,-103.02734375
3,1746312980101.4688,-87.40234375,-12.20703125,-78.125,-91.796875
4,1746312980105.375,-58.59375,4.39453125,-36.62109375,-77.63671875
5,1746312980109.2812,-74.70703125,-30.76171875,-22.94921875,-102.05078125
6,1746312980113.1875,-55.17578125,-39.0625,-29.296875,-45.8984375
7,1746312980117.0938,-31.73828125,-11.23046875,-84.47265625,-15.13671875
8,1746312980121,-70.3125,-44.921875,-69.3359375,-51.26953125
9,1746312980124.9062,-94.23828125,-103.515625,-13.18359375,-71.2890625
10,1746312980128.8125,-119.62890625,-0.48828125,-31.25,-91.30859375
11,1746312980132.7188,-105.95703125,66.89453125,-79.58984375,-57.12890625
0,1746312980136.625,-77.1484375,15.13671875,-143.5546875,-27.83203125
1,1746312980140.5312,-41.015625,-44.43359375,-62.01171875,-52.734375
2,1746312980144.4375,-1.953125,-147.94921875,38.0859375,-51.26953125
3,1746312980148.3438,-68.359375,-108.88671875,-33.203125,-81.0546875
4,1746312980152.25,-118.65234375,59.5703125,-45.41015625,-104.00390625
5,1746312980156.1562,-84.47265625,82.51953125,-50.29296875,-85.44921875
6,1746312980160.0625,-33.203125,22.94921875,-83.49609375,-54.19921875
7,1746312980163.9688,4.39453125,-61.5234375,-42.48046875,-30.76171875
8,1746312980167.875,-31.25,-75.68359375,-18.06640625,-52.24609375
9,1746312980171.7812,-89.84375,-8.30078125,-49.31640625,-67.3828125
10,1746312980175.6875,-91.796875,-48.33984375,-35.64453125,-31.25
11,1746312980179.5938,-119.62890625,-58.59375,-32.2265625,-54.6875
0,1746312980183.5,-196.2890625,25.87890625,-75.68359375,-72.75390625
1,1746312980187.4062,-205.078125,50.29296875,-81.54296875,-43.45703125
2,1746312980191.3125,-151.3671875,11.71875,-69.82421875,-43.45703125
3,1746312980195.2188,-106.4453125,-7.32421875,-31.73828125,-38.57421875
4,1746312980199.125,-82.51953125,-28.3203125,-12.20703125,-57.6171875
5,1746312980203.0312,-26.3671875,-28.3203125,-17.578125,-66.89453125
6,1746312980206.9375,-6.34765625,13.671875,-43.9453125,-48.33984375
7,1746312980210.8438,-48.828125,31.73828125,-64.453125,-72.265625
8,1746312980214.75,-42.96875,41.015625,-40.0390625,-87.40234375
9,1746312980218.6562,-47.8515625,64.453125,-49.31640625,-82.51953125
10,1746312980222.5625,-51.26953125,42.96875,-77.63671875,-59.08203125
11,1746312980226.4688,-11.23046875,-23.4375,-83.49609375,0.9765625
0,1746312980230.375,8.30078125,-32.2265625,-17.08984375,-8.7890625
1,1746312980234.2812,-41.50390625,36.62109375,-1.46484375,-100.09765625
2,1746312980238.1875,-47.36328125,31.25,-35.15625,-82.03125
3,1746312980242.0938,-41.015625,-22.94921875,-41.015625,-55.17578125
4,1746312980246,-78.61328125,43.9453125,-56.15234375,-92.28515625
5,1746312980249.9062,-70.80078125,103.515625,-66.89453125,-99.12109375
6,1746312980253.8125,-30.2734375,9.27734375,-58.10546875,-13.671875
7,1746312980257.7188,-17.578125,-83.984375,-14.16015625,8.30078125
8,1746312980261.625,-79.1015625,-0.48828125,-29.296875,-70.80078125
9,1746312980265.5312,-80.078125,54.6875,-63.96484375,-70.80078125
10,1746312980269.4375,-5.37109375,15.625,-36.1328125,-23.4375
11,1746312980273.3438,-22.4609375,-10.7421875,-21.97265625,-30.76171875
0,1746312980277.25,-65.91796875,14.16015625,-20.99609375,-56.640625
1,1746312980281.1562,-101.5625,64.453125,-61.03515625,-69.82421875
2,1746312980285.0625,-93.75,26.85546875,-48.33984375,-48.33984375
3,1746312980288.9688,-57.6171875,-43.45703125,-26.3671875,-35.15625
4,1746312980292.875,-56.15234375,-26.3671875,-26.85546875,-30.2734375
5,1746312980296.7812,-52.24609375,-5.37109375,1.953125,-45.41015625
6,1746312980300.6875,-79.1015625,-16.6015625,-29.296875,-86.42578125
7,1746312980304.5938,-80.078125,18.06640625,-53.7109375,-82.51953125
8,1746312980308.5,-30.76171875,-11.23046875,-42.96875,-53.7109375
9,1746312980312.4062,-1.953125,-82.03125,-70.3125,-4.39453125
10,1746312980316.3125,-19.53125,-29.78515625,-130.859375,-6.8359375
11,1746312980320.2188,-52.734375,1.46484375,-57.12890625,-88.8671875
0,1746312980324.125,-67.87109375,26.85546875,16.6015625,-101.5625
1,1746312980328.0312,-53.22265625,13.18359375,-4.39453125,-74.21875
2,1746312980331.9375,-36.62109375,-32.71484375,-34.66796875,-80.078125
3,1746312980335.8438,-54.6875,-47.36328125,-47.8515625,-76.66015625
4,1746312980339.75,-37.59765625,-76.171875,-54.19921875,-26.85546875
5,1746312980343.6562,-27.83203125,-82.03125,-92.28515625,-21.484375
6,1746312980347.5625,-81.54296875,-39.55078125,-63.4765625,-53.7109375
7,1746312980351.4688,-97.65625,0,-29.296875,-55.6640625
8,1746312980355.375,-70.3125,-19.04296875,-12.20703125,-33.203125
9,1746312980359.2812,-47.36328125,-41.9921875,-21.97265625,-36.62109375
10,1746312980363.1875,-31.25,-74.21875,-32.2265625,-43.9453125
11,1746312980367.0938,-0.9765625,-91.30859375,-37.109375,-29.78515625
0,1746312980371,-12.6953125,-17.578125,-67.87109375,-48.828125
1,1746312980374.9062,-86.9140625,65.4296875,-54.6875,-77.63671875
2,1746312980378.8125,-99.12109375,0.48828125,-40.0390625,-81.0546875
3,1746312980382.7188,-25.87890625,-102.05078125,-36.1328125,-55.6640625
4,1746312980386.625,-11.23046875,-107.91015625,-45.41015625,-41.015625
5,1746312980390.5312,-29.296875,-51.7578125,-53.7109375,-36.1328125
6,1746312980394.4375,-3.41796875,8.7890625,-50.29296875,-44.43359375
7,1746312980398.3438,-41.50390625,25.87890625,-83.49609375,-97.16796875
8,1746312980402.25,-84.9609375,40.0390625,-81.54296875,-90.8203125
9,1746312980406.1562,-69.82421875,20.5078125,-43.45703125,-34.66796875
10,1746312980410.0625,-64.94140625,-44.43359375,13.18359375,-44.921875
11,1746312980413.9688,-55.6640625,-118.1640625,0,-41.50390625
0,1746312980417.875,-59.08203125,-67.87109375,-81.54296875,-34.66796875
1,1746312980421.7812,-24.90234375,-55.17578125,-62.5,-50.78125
2,1746312980425.6875,-41.015625,-101.5625,-18.5546875,-86.42578125
3,1746312980429.5938,-130.859375,-15.13671875,-46.38671875,-124.51171875
4,1746312980433.5,-101.5625,6.34765625,-69.82421875,-82.03125
5,1746312980437.4062,-47.8515625,-52.734375,-78.125,-61.5234375
6,1746312980441.3125,-63.96484375,-118.1640625,-42.48046875,-57.12890625
7,1746312980445.2188,-58.10546875,-134.27734375,-33.69140625,-42.48046875
8,1746312980449.125,-59.08203125,-48.33984375,-86.9140625,-55.6640625
9,1746312980453.0312,-117.1875,-14.6484375,-111.328125,-83.49609375
10,1746312980456.9375,-117.67578125,-27.34375,-61.5234375,-85.44921875
11,1746312980460.8438,-90.33203125,-55.17578125,-42.48046875,-89.35546875
0,1746312980464.75,-52.24609375,-160.15625,-64.453125,-75.1953125
1,1746312980468.6562,-42.48046875,-151.85546875,-99.12109375,-44.43359375
2,1746312980472.5625,-59.08203125,-55.17578125,-76.66015625,-80.56640625
3,1746312980476.4688,-83.0078125,-8.30078125,-89.84375,-129.8828125
4,1746312980480.375,-108.88671875,7.32421875,-118.65234375,-121.09375
5,1746312980484.2812,-97.65625,-43.9453125,-49.8046875,-86.9140625
6,1746312980488.1875,-93.75,-105.95703125,-38.57421875,-71.2890625
7,1746312980492.0938,-54.19921875,-87.890625,-24.90234375,-60.546875
8,1746312980496,-43.9453125,-13.671875,-45.41015625,-72.75390625
9,1746312980499.9062,-65.91796875,-46.38671875,-108.88671875,-65.91796875
10,1746312980503.8125,-37.59765625,-40.52734375,-65.4296875,-43.45703125
11,1746312980507.7188,-54.6875,7.8125,-36.1328125,-67.87109375
0,1746312980511.625,-98.6328125,-60.546875,-33.69140625,-85.9375
1,1746312980515.5312,-111.81640625,-39.55078125,-43.9453125,-107.91015625
2,1746312980519.4375,-53.7109375,-16.11328125,-88.8671875,-69.3359375
3,1746312980523.3438,-6.34765625,-44.43359375,-71.2890625,-39.0625
4,1746312980527.25,-49.8046875,0.9765625,-89.35546875,-92.7734375
5,1746312980531.1562,-80.078125,13.671875,-89.35546875,-92.28515625
6,1746312980535.0625,-79.58984375,-2.44140625,-30.76171875,-58.10546875
7,1746312980538.9688,-71.77734375,-32.2265625,-52.24609375,-46.38671875
8,1746312980542.875,-51.7578125,-41.015625,-70.3125,-62.5
9,1746312980546.7812,-18.5546875,-60.546875,-30.76171875,-43.9453125
10,1746312980550.6875,-2.44140625,-29.78515625,0.48828125,-9.27734375
11,1746312980554.5938,-20.01953125,10.7421875,-32.2265625,-40.52734375
0,1746312980558.5,-27.83203125,9.765625,-58.59375,-65.4296875
1,1746312980562.4062,-42.48046875,27.34375,2.9296875,-73.2421875
2,1746312980566.3125,-64.94140625,-25.390625,-13.18359375,-65.4296875
3,1746312980570.2188,-44.921875,-38.0859375,-25.390625,-41.50390625
4,1746312980574.125,-26.85546875,-27.34375,-41.50390625,-43.9453125
5,1746312980578.0312,-26.3671875,-9.27734375,-57.12890625,-46.38671875
6,1746312980581.9375,-4.39453125,40.52734375,-32.2265625,-15.625
7,1746312980585.8438,-66.40625,20.01953125,-95.21484375,-69.3359375
8,1746312980589.75,-102.5390625,-8.7890625,-64.94140625,-111.328125
9,1746312980593.6562,-67.87109375,-24.4140625,-0.9765625,-68.84765625
10,1746312980597.5625,-43.45703125,-41.9921875,-14.16015625,-41.9921875
11,1746312980601.4688,-42.48046875,-34.1796875,-33.69140625,-26.3671875
0,1746312980605.375,-27.34375,-34.66796875,-55.6640625,-23.92578125
1,1746312980609.2812,-26.3671875,-65.91796875,-57.6171875,-54.6875
2,1746312980613.1875,-59.5703125,-13.18359375,-67.87109375,-100.5859375
3,1746312980617.0938,-66.89453125,29.78515625,-53.7109375,-109.375
4,1746312980621,-56.640625,-1.953125,-53.22265625,-72.265625
5,1746312980624.9062,-17.08984375,-26.3671875,-34.1796875,-28.3203125
6,1746312980628.8125,15.13671875,-22.94921875,-44.43359375,-23.92578125
7,1746312980632.7188,-30.2734375,-35.64453125,-101.07421875,-39.0625
8,1746312980636.625,-66.89453125,-14.16015625,-71.77734375,-45.41015625
9,1746312980640.5312,-21.97265625,3.41796875,-16.6015625,-67.3828125
10,1746312980644.4375,-31.73828125,-42.48046875,-32.2265625,-78.61328125
11,1746312980648.3438,-49.8046875,-41.9921875,-59.5703125,-95.21484375
0,1746312980652.25,-57.12890625,-20.5078125,-39.55078125,-79.58984375
1,1746312980656.1562,-88.37890625,-28.3203125,-50.29296875,-56.640625
2,1746312980660.0625,-78.61328125,-27.34375,-59.08203125,-51.7578125
3,1746312980663.9688,-45.41015625,-0.9765625,-51.7578125,-39.0625
4,1746312980667.875,-23.92578125,-20.5078125,-60.546875,-41.015625
5,1746312980671.7812,-33.203125,-4.39453125,-55.17578125,-49.8046875
6,1746312980675.6875,-49.31640625,-68.84765625,-31.25,-55.17578125
7,1746312980679.5938,-51.26953125,-130.859375,-20.01953125,-50.29296875
8,1746312980683.5,-59.08203125,26.85546875,-41.015625,-66.89453125
9,1746312980687.4062,-46.875,66.40625,-51.26953125,-50.78125
10,1746312980691.3125,-17.08984375,-37.109375,-39.0625,-1.953125
11,1746312980695.2188,-14.6484375,-33.203125,-47.36328125,-22.4609375
0,1746312980699.125,-55.6640625,-35.15625,-63.4765625,-97.65625
1,1746312980703.0312,-61.5234375,-37.109375,-38.0859375,-78.61328125
2,1746312980706.9375,-23.92578125,-23.92578125,-31.73828125,-29.78515625
3,1746312980710.8438,-36.62109375,20.5078125,-86.42578125,-50.78125
4,1746312980714.75,-49.31640625,42.48046875,-88.8671875,-55.6640625
5,1746312980718.6562,-29.78515625,-12.6953125,-8.30078125,-42.96875
6,1746312980722.5625,-68.84765625,-66.40625,17.08984375,-70.3125
7,1746312980726.4688,-52.24609375,-61.5234375,-32.71484375,-22.94921875
8,1746312980730.375,-14.16015625,-71.2890625,-63.4765625,10.7421875
9,1746312980734.2812,-47.36328125,-7.8125,-53.7109375,-49.8046875
10,1746312980738.1875,-42.48046875,63.4765625,-32.71484375,-60.546875
11,1746312980742.0938,-36.1328125,12.20703125,-21.484375,-45.41015625
0,1746312980746,-33.69140625,-24.90234375,-79.58984375,-45.8984375
1,1746312980749.9062,-41.015625,-63.96484375,-62.98828125,-20.01953125
2,1746312980753.8125,-62.01171875,-48.828125,-9.765625,-13.671875
3,1746312980757.7188,-51.26953125,22.4609375,-19.53125,-36.1328125
4,1746312980761.625,-51.7578125,13.671875,-30.76171875,-31.73828125
5,1746312980765.5312,-54.6875,16.11328125,-39.0625,-33.203125
6,1746312980769.4375,-39.0625,13.18359375,-58.10546875,-37.59765625
7,1746312980773.3438,-37.59765625,-23.4375,-72.265625,-13.18359375
8,1746312980777.25,-34.66796875,-50.78125,-39.55078125,-35.15625
9,1746312980781.1562,-39.55078125,-51.7578125,-13.671875,-76.171875
10,1746312980785.0625,-67.3828125,9.765625,-54.19921875,-70.80078125
11,1746312980788.9688,-44.921875,-23.4375,-52.24609375,-37.109375
0,1746312980792.875,0,-47.36328125,-9.765625,-27.83203125
1,1746312980796.7812,-6.34765625,1.953125,-17.578125,-54.19921875
2,1746312980800.6875,-36.1328125,-3.90625,-57.12890625,-68.84765625
3,1746312980804.5938,-4.39453125,-20.5078125,-66.89453125,-55.6640625
4,1746312980808.5,-13.671875,-33.203125,-50.29296875,-44.43359375
5,1746312980812.4062,-72.75390625,-8.7890625,-22.94921875,-78.125
6,1746312980816.3125,-78.125,20.5078125,-35.64453125,-83.0078125
7,1746312980820.2188,-50.29296875,-47.8515625,-40.0390625,-52.734375
8,1746312980824.125,-28.80859375,-148.4375,-15.625,-41.015625
9,1746312980828.0312,-66.89453125,-28.80859375,-7.8125,-61.03515625
10,1746312980831.9375,-78.125,67.87109375,-37.59765625,-111.81640625
11,1746312980835.8438,-41.015625,3.41796875,-88.8671875,-114.2578125
0,1746312980839.75,8.30078125,-11.71875,-42.96875,-62.5
1,1746312980843.6562,7.32421875,-23.92578125,25.87890625,-47.8515625
2,1746312980847.5625,-56.15234375,-7.8125,-13.671875,-102.05078125
3,1746312980851.4688,-92.28515625,35.64453125,-43.45703125,-123.53515625
4,1746312980855.375,-54.6875,21.97265625,-43.45703125,-95.703125
5,1746312980859.2812,-40.0390625,-73.2421875,-81.54296875,-83.984375
6,1746312980863.1875,-40.0390625,-43.9453125,-41.9921875,-75.68359375
7,1746312980867.0938,5.859375,31.73828125,-25.87890625,-65.91796875
8,1746312980871,4.39453125,-39.55078125,-73.73046875,-89.84375
9,1746312980874.9062,-15.13671875,-9.765625,-13.671875,-97.65625
10,1746312980878.8125,-43.45703125,19.53125,-12.20703125,-92.7734375
11,1746312980882.7188,-62.98828125,-6.8359375,-91.796875,-92.7734375
0,1746312980886.625,-45.41015625,0,-60.05859375,-83.0078125
1,1746312980890.5312,-24.90234375,-23.92578125,-18.5546875,-79.58984375
2,1746312980894.4375,-2.44140625,-8.30078125,-2.9296875,-73.2421875
3,1746312980898.3438,-14.6484375,-71.2890625,6.34765625,-64.94140625
4,1746312980902.25,-24.4140625,-93.75,-9.765625,-88.8671875
5,1746312980906.1562,-31.25,39.0625,-52.24609375,-99.609375
6,1746312980910.0625,-75.1953125,44.921875,-112.79296875,-104.00390625
7,1746312980913.9688,-61.5234375,-17.578125,-93.26171875,-70.80078125
8,1746312980917.875,-48.33984375,-95.21484375,-28.3203125,-58.10546875
9,1746312980921.7812,-93.26171875,-44.921875,-31.73828125,-115.72265625
10,1746312980925.6875,-59.08203125,70.3125,-17.08984375,-101.07421875
11,1746312980929.5938,-4.39453125,-0.48828125,-19.53125,-63.96484375
0,1746312980933.5,-9.765625,-52.24609375,-63.96484375,-77.63671875
1,1746312980937.4062,-36.62109375,-24.4140625,-62.5,-78.61328125
2,1746312980941.3125,-52.24609375,-55.17578125,-39.0625,-60.05859375
3,1746312980945.2188,-68.359375,-42.96875,-40.52734375,-79.1015625
4,1746312980949.125,-69.3359375,4.8828125,-36.1328125,-121.58203125
5,1746312980953.0312,-34.66796875,-20.01953125,-7.8125,-126.46484375
6,1746312980956.9375,-26.3671875,-66.40625,-29.296875,-117.67578125
7,1746312980960.8438,-13.18359375,-29.296875,-60.546875,-115.72265625
8,1746312980964.75,23.4375,15.625,-50.29296875,-94.7265625
9,1746312980968.6562,-12.20703125,-34.66796875,-67.87109375,-93.26171875
10,1746312980972.5625,-74.21875,-34.1796875,-63.4765625,-133.7890625
11,1746312980976.4688,-41.015625,-4.39453125,-11.71875,-138.671875
0,1746312980980.375,-8.30078125,-44.43359375,3.41796875,-129.39453125
1,1746312980984.2812,-30.76171875,-43.45703125,-53.22265625,-140.13671875
2,1746312980988.1875,-81.54296875,24.90234375,-62.98828125,-127.9296875
3,1746312980992.0938,-86.42578125,7.32421875,-62.01171875,-132.32421875
4,1746312980996,-60.05859375,-31.73828125,-48.828125,-148.92578125
5,1746312980999.9062,-59.08203125,-53.22265625,-30.2734375,-133.30078125
6,1746312981003.8125,-44.921875,-72.265625,-2.44140625,-104.00390625
7,1746312981007.7188,-36.1328125,-22.4609375,17.08984375,-89.35546875
8,1746312981011.625,-61.03515625,-4.8828125,-40.0390625,-114.2578125
9,1746312981015.5312,-53.22265625,-23.4375,-46.875,-110.83984375
10,1746312981019.4375,-48.828125,-0.9765625,-45.41015625,-98.6328125
11,1746312981023.3438,-75.1953125,18.06640625,-76.66015625,-104.4921875
0,1746312981027.25,-62.98828125,-25.390625,-63.4765625,-98.14453125
1,1746312981031.1562,-40.0390625,-46.38671875,-34.66796875,-83.49609375
2,1746312981035.0625,-31.73828125,-4.39453125,-59.5703125,-97.65625
3,1746312981038.9688,-17.08984375,-21.97265625,-46.38671875,-101.5625
4,1746312981042.875,-9.765625,-60.05859375,-10.7421875,-78.61328125
5,1746312981046.7812,-25.87890625,-33.69140625,-16.6015625,-82.51953125
6,1746312981050.6875,-46.38671875,8.30078125,-78.125,-116.69921875
7,1746312981054.5938,-51.26953125,22.4609375,-77.1484375,-108.3984375
8,1746312981058.5,-39.0625,13.671875,-48.33984375,-85.9375
9,1746312981062.4062,-52.24609375,-14.16015625,-56.640625,-110.3515625
10,1746312981066.3125,-71.77734375,19.53125,-58.59375,-68.84765625
11,1746312981070.2188,-40.0390625,3.90625,-34.66796875,-26.3671875
0,1746312981074.125,-5.859375,-119.140625,-15.625,-48.33984375
1,1746312981078.0312,-10.7421875,-82.51953125,-74.70703125,-85.9375
2,1746312981081.9375,-37.109375,14.16015625,-48.828125,-108.3984375
3,1746312981085.8438,-82.03125,44.921875,15.13671875,-105.46875
4,1746312981089.75,-53.7109375,10.25390625,9.27734375,-62.5
5,1746312981093.6562,-45.8984375,-28.80859375,-21.97265625,-59.08203125
6,1746312981097.5625,-36.1328125,-8.30078125,-34.66796875,-54.19921875
7,1746312981101.4688,-0.48828125,-12.6953125,-39.0625,-13.671875
8,1746312981105.375,-10.25390625,-2.44140625,-42.96875,-22.4609375
9,1746312981109.2812,-23.92578125,-31.73828125,-74.21875,-29.78515625
10,1746312981113.1875,-41.015625,-143.06640625,-54.19921875,-18.06640625
11,1746312981117.0938,-51.7578125,-109.375,0.9765625,-42.96875
0,1746312981121,-32.2265625,15.13671875,3.90625,-62.5
1,1746312981124.9062,-5.37109375,11.23046875,-16.11328125,-50.78125
2,1746312981128.8125,6.34765625,-49.31640625,-21.97265625,-41.9921875
3,1746312981132.7188,3.90625,-14.16015625,-42.96875,-37.59765625
4,1746312981136.625,-19.04296875,25.390625,-43.9453125,-0.9765625
5,1746312981140.5312,-53.22265625,-60.05859375,-1.953125,-22.94921875
6,1746312981144.4375,-36.62109375,-91.30859375,-14.16015625,-68.84765625
7,1746312981148.3438,-42.96875,10.7421875,-38.57421875,-84.9609375
8,1746312981152.25,-62.01171875,-9.27734375,-78.61328125,-36.1328125
9,1746312981156.1562,2.9296875,-41.50390625,-62.01171875,42.48046875
10,1746312981160.0625,-12.20703125,10.25390625,-21.484375,-6.8359375
11,1746312981163.9688,-32.71484375,6.8359375,-13.671875,-48.828125
0,1746312981167.875,-20.5078125,-38.0859375,-8.7890625,-53.7109375
1,1746312981171.7812,-34.66796875,-90.33203125,-18.06640625,-61.5234375
2,1746312981175.6875,-41.9921875,-89.84375,-15.625,-63.4765625
3,1746312981179.5938,-50.78125,-12.6953125,-18.5546875,-49.8046875
4,1746312981183.5,-49.31640625,38.0859375,-69.3359375,-53.7109375
5,1746312981187.4062,-52.734375,4.8828125,-65.4296875,-22.4609375
6,1746312981191.3125,-13.18359375,-47.8515625,-63.4765625,16.6015625
7,1746312981195.2188,-5.859375,-11.71875,-86.42578125,-24.90234375
8,1746312981199.125,-18.06640625,-7.8125,-7.32421875,-7.8125
9,1746312981203.0312,-20.99609375,-72.265625,38.0859375,-30.2734375
10,1746312981206.9375,-8.7890625,-83.0078125,0,-88.8671875
11,1746312981210.8438,-67.3828125,-11.71875,-35.64453125,-88.37890625
0,1746312981214.75,-100.5859375,-13.671875,-44.43359375,-78.125
1,1746312981218.6562,-19.53125,-15.625,-81.54296875,-42.48046875
2,1746312981222.5625,-14.6484375,10.7421875,-51.7578125,-19.53125
3,1746312981226.4688,-16.6015625,-7.32421875,2.9296875,-18.06640625
4,1746312981230.375,-13.18359375,-30.2734375,-12.6953125,-46.875
5,1746312981234.2812,-52.24609375,-36.62109375,-29.78515625,-87.40234375
6,1746312981238.1875,-43.9453125,-41.015625,-24.4140625,-46.875
7,1746312981242.0938,-49.31640625,-57.6171875,-34.1796875,-23.4375
8,1746312981246,-51.26953125,-30.76171875,-72.75390625,-10.7421875
9,1746312981249.9062,-34.1796875,-12.20703125,-44.43359375,-33.69140625
10,1746312981253.8125,-44.43359375,7.8125,-21.97265625,-101.5625
11,1746312981257.7188,-7.32421875,-32.71484375,-29.296875,-52.734375
0,1746312981261.625,-29.78515625,-46.38671875,-18.5546875,-30.2734375
1,1746312981265.5312,-54.6875,-18.5546875,-48.33984375,-42.96875
2,1746312981269.4375,-38.0859375,10.25390625,-74.70703125,-53.22265625
3,1746312981273.3438,-39.55078125,8.7890625,-38.0859375,-48.828125
4,1746312981277.25,-66.40625,-1.953125,-28.80859375,-40.0390625
5,1746312981281.1562,-84.47265625,-20.99609375,-13.18359375,-59.08203125
6,1746312981285.0625,-20.01953125,-76.171875,-5.37109375,-30.76171875
7,1746312981288.9688,-40.52734375,0.48828125,-45.8984375,-51.7578125
8,1746312981292.875,-21.97265625,-9.27734375,-44.921875,-62.5
9,1746312981296.7812,10.25390625,-84.9609375,-54.6875,-21.484375
10,1746312981300.6875,-43.45703125,-2.44140625,-62.01171875,-39.55078125
11,1746312981304.5938,-40.0390625,21.97265625,-23.4375,-55.17578125
0,1746312981308.5,-38.0859375,-26.3671875,-9.27734375,-66.89453125
1,1746312981312.4062,-35.15625,-36.62109375,-20.5078125,-55.6640625
2,1746312981316.3125,-29.296875,0,-33.203125,-22.4609375
3,1746312981320.2188,-2.44140625,-11.71875,-19.53125,-27.34375
4,1746312981324.125,-17.578125,-35.15625,-36.62109375,-53.22265625
5,1746312981328.0312,-37.109375,-13.18359375,-59.5703125,-33.203125
6,1746312981331.9375,-41.015625,0.9765625,-15.13671875,-45.8984375
7,1746312981335.8438,-59.5703125,-32.71484375,-81.0546875,-63.4765625
8,1746312981339.75,-46.875,-38.0859375,-102.5390625,-60.546875
9,1746312981343.6562,-65.4296875,-20.99609375,10.25390625,-87.40234375
10,1746312981347.5625,-103.02734375,0,-8.7890625,-103.515625
11,1746312981351.4688,-96.19140625,-47.36328125,-31.25,-73.2421875
0,1746312981355.375,-95.703125,-46.38671875,-21.97265625,-53.7109375
1,1746312981359.2812,-80.56640625,-9.27734375,-4.39453125,-62.01171875
2,1746312981363.1875,-57.12890625,-54.19921875,8.7890625,-73.2421875
3,1746312981367.0938,-51.7578125,-39.55078125,-37.109375,-77.1484375
4,1746312981371,-62.98828125,12.6953125,-67.3828125,-88.37890625
5,1746312981374.9062,-71.2890625,-12.20703125,-40.52734375,-75.1953125
6,1746312981378.8125,-57.12890625,-12.20703125,-31.25,-45.41015625
7,1746312981382.7188,-56.640625,-18.06640625,-42.48046875,-56.640625
8,1746312981386.625,-40.0390625,-10.7421875,-38.0859375,-63.96484375
9,1746312981390.5312,-25.87890625,-10.25390625,-28.80859375,-63.4765625
10,1746312981394.4375,-42.96875,-47.8515625,-33.69140625,-77.63671875
11,1746312981398.3438,-43.45703125,-44.43359375,-41.50390625,-61.03515625
0,1746312981402.25,-19.53125,-74.21875,-13.671875,-25.390625
1,1746312981406.1562,-36.1328125,-62.5,20.01953125,-51.7578125
2,1746312981410.0625,-92.28515625,33.203125,-28.80859375,-109.375
3,1746312981413.9688,-108.88671875,0.9765625,-46.875,-105.95703125
4,1746312981417.875,-50.78125,-43.9453125,-47.36328125,-61.5234375
5,1746312981421.7812,-0.48828125,-78.125,-68.359375,-0.9765625
6,1746312981425.6875,3.90625,-54.19921875,-62.5,-4.39453125
7,1746312981429.5938,-47.8515625,50.78125,-67.3828125,-86.42578125
8,1746312981433.5,-67.87109375,56.15234375,-40.0390625,-88.8671875
9,1746312981437.4062,-45.8984375,-41.9921875,-20.99609375,-49.8046875
10,1746312981441.3125,-71.77734375,-89.35546875,-23.92578125,-43.45703125
11,1746312981445.2188,-70.80078125,-49.31640625,-32.71484375,-52.24609375
0,1746312981449.125,-72.265625,-29.78515625,-37.109375,-76.171875
1,1746312981453.0312,-43.9453125,-66.89453125,-19.53125,-35.15625
2,1746312981456.9375,-24.90234375,-37.59765625,-40.52734375,-22.4609375
3,1746312981460.8438,-6.8359375,9.765625,-54.6875,-52.24609375
4,1746312981464.75,3.41796875,22.94921875,-35.64453125,-49.31640625
5,1746312981468.6562,-25.390625,14.6484375,11.71875,-54.19921875
6,1746312981472.5625,-22.4609375,-64.94140625,-5.859375,-52.734375
7,1746312981476.4688,-34.66796875,-59.08203125,-42.96875,-41.015625
8,1746312981480.375,-62.5,-36.1328125,-36.62109375,-75.1953125
9,1746312981484.2812,-56.15234375,-73.73046875,-12.6953125,-78.125
10,1746312981488.1875,-43.9453125,-34.1796875,-45.8984375,-47.36328125
11,1746312981492.0938,-42.96875,22.94921875,-100.09765625,-52.24609375
0,1746312981496,-26.3671875,2.44140625,-52.24609375,-75.68359375
1,1746312981499.9062,-23.92578125,-14.16015625,-36.1328125,-79.58984375
2,1746312981503.8125,-40.0390625,-15.13671875,-26.3671875,-46.875
3,1746312981507.7188,-59.08203125,-65.4296875,2.9296875,-35.15625
4,1746312981511.625,-65.4296875,-50.29296875,-8.7890625,-17.08984375
5,1746312981515.5312,-33.203125,-27.83203125,-48.828125,-21.97265625
6,1746312981519.4375,-31.73828125,-44.43359375,-54.19921875,-70.3125
7,1746312981523.3438,-38.57421875,-27.83203125,-59.08203125,-60.546875
8,1746312981527.25,-48.828125,1.46484375,-72.265625,-42.48046875
9,1746312981531.1562,-45.41015625,-49.31640625,-20.5078125,-61.03515625
10,1746312981535.0625,-46.38671875,-73.2421875,3.90625,-70.3125
11,1746312981538.9688,-58.10546875,-32.2265625,-20.99609375,-54.19921875
0,1746312981542.875,-27.34375,-33.203125,-51.26953125,-33.203125
1,1746312981546.7812,2.44140625,-11.23046875,-19.53125,-36.1328125
2,1746312981550.6875,-15.13671875,-13.18359375,-22.94921875,-82.51953125
3,1746312981554.5938,-13.18359375,-40.0390625,-45.41015625,-59.5703125
4,1746312981558.5,-44.921875,-33.203125,-81.54296875,-55.17578125
5,1746312981562.4062,-73.73046875,-82.51953125,-99.609375,-71.77734375
6,1746312981566.3125,-58.59375,-54.6875,-17.08984375,-51.26953125
7,1746312981570.2188,-56.15234375,-17.578125,4.8828125,-72.265625
8,1746312981574.125,-44.43359375,-49.8046875,-29.78515625,-83.49609375
9,1746312981578.0312,-55.6640625,7.8125,-70.3125,-73.2421875
10,1746312981581.9375,-90.8203125,-7.32421875,-66.89453125,-87.890625
11,1746312981585.8438,-79.1015625,-29.296875,-23.92578125,-86.9140625
0,1746312981589.75,-47.36328125,-33.69140625,-3.90625,-64.94140625
1,1746312981593.6562,-52.24609375,-71.2890625,-40.52734375,-68.84765625
2,1746312981597.5625,-48.828125,-63.4765625,-82.51953125,-57.6171875
3,1746312981601.4688,-44.43359375,-29.296875,-75.1953125,-49.31640625
4,1746312981605.375,-39.55078125,-64.94140625,-24.4140625,-52.24609375
5,1746312981609.2812,-30.2734375,-29.296875,-13.18359375,-60.546875
6,1746312981613.1875,-26.85546875,-5.37109375,-54.6875,-76.171875
7,1746312981617.0938,-43.45703125,-33.203125,-68.359375,-93.75
8,1746312981621,-29.296875,-45.41015625,-15.625,-81.54296875
9,1746312981624.9062,26.3671875,-60.546875,2.44140625,-38.0859375
10,1746312981628.8125,-8.7890625,-45.8984375,-49.31640625,-34.66796875
11,1746312981632.7188,-87.890625,-32.2265625,-41.50390625,-43.45703125
0,1746312981636.625,-85.44921875,-41.9921875,-33.203125,-57.12890625
1,1746312981640.5312,-49.8046875,-58.59375,-58.59375,-71.77734375
2,1746312981644.4375,-41.50390625,-5.37109375,-46.875,-81.54296875
3,1746312981648.3438,-57.12890625,-9.27734375,-25.87890625,-55.17578125
4,1746312981652.25,-50.78125,-48.828125,-39.0625,-27.34375
5,1746312981656.1562,-38.57421875,-45.41015625,-85.44921875,-67.3828125
6,1746312981660.0625,-37.59765625,-41.9921875,-53.7109375,-75.68359375
7,1746312981663.9688,-37.109375,-21.484375,39.0625,-70.80078125
8,1746312981667.875,-43.9453125,-58.10546875,-3.41796875,-61.5234375
9,1746312981671.7812,-37.109375,-45.8984375,-59.08203125,-51.7578125
10,1746312981675.6875,-21.484375,12.6953125,-47.8515625,-63.4765625
11,1746312981679.5938,-0.48828125,-5.37109375,2.44140625,-40.52734375
0,1746312981683.5,-24.90234375,-46.38671875,-23.92578125,-45.8984375
1,1746312981687.4062,-62.5,-53.22265625,-74.21875,-61.03515625
2,1746312981691.3125,-51.7578125,-3.90625,-22.4609375,-56.15234375
3,1746312981695.2188,-33.203125,-36.62109375,-33.69140625,-67.87109375
4,1746312981699.125,-5.859375,-68.359375,-66.89453125,-40.52734375
5,1746312981703.0312,-13.18359375,-51.26953125,-27.34375,-9.27734375
6,1746312981706.9375,-79.58984375,-22.94921875,-25.87890625,-59.08203125
7,1746312981710.8438,-98.14453125,14.16015625,-35.15625,-104.00390625
8,1746312981714.75,-64.453125,-27.34375,-28.80859375,-83.984375
9,1746312981718.6562,-44.43359375,-62.98828125,-18.06640625,-53.22265625
10,1746312981722.5625,-16.6015625,-31.73828125,-39.55078125,-16.6015625
11,1746312981726.4688,-16.6015625,-0.48828125,-92.28515625,-29.78515625
0,1746312981730.375,-29.296875,-18.5546875,-46.38671875,-65.4296875
1,1746312981734.2812,-34.66796875,-51.26953125,19.04296875,-58.59375
2,1746312981738.1875,-62.5,-69.3359375,-3.41796875,-67.3828125
3,1746312981742.0938,-69.82421875,-81.0546875,-35.15625,-61.03515625
4,1746312981746,-48.828125,-72.265625,-41.9921875,-46.38671875
5,1746312981749.9062,-30.2734375,-90.33203125,-16.11328125,-61.5234375
6,1746312981753.8125,-40.52734375,-64.453125,-47.8515625,-79.1015625
7,1746312981757.7188,-62.5,-53.22265625,-69.82421875,-45.8984375
8,1746312981761.625,-69.3359375,-32.2265625,-46.875,-8.7890625
9,1746312981765.5312,-68.84765625,-50.29296875,-39.55078125,-27.83203125
10,1746312981769.4375,-89.35546875,-83.984375,-52.734375,-79.1015625
11,1746312981773.3438,-85.9375,-37.59765625,-57.12890625,-85.44921875
0,1746312981777.25,-67.3828125,-48.33984375,-25.390625,-51.26953125
1,1746312981781.1562,-61.03515625,-84.47265625,12.20703125,-60.05859375
2,1746312981785.0625,-77.1484375,-21.484375,-18.5546875,-81.0546875
3,1746312981788.9688,-75.68359375,5.37109375,-22.94921875,-58.59375
4,1746312981792.875,-48.33984375,-46.38671875,-41.9921875,-29.78515625
5,1746312981796.7812,-34.1796875,-83.984375,-76.171875,-29.296875
6,1746312981800.6875,-48.33984375,-69.3359375,-67.3828125,-50.78125
7,1746312981804.5938,-53.22265625,-27.83203125,-49.31640625,-55.17578125
8,1746312981808.5,-34.1796875,-29.78515625,2.9296875,-59.08203125
9,1746312981812.4062,-31.25,-60.05859375,-19.04296875,-59.08203125
10,1746312981816.3125,-22.4609375,-51.26953125,-34.66796875,-31.25
11,1746312981820.2188,-26.85546875,-49.8046875,-19.53125,-25.390625
0,1746312981824.125,-55.6640625,-67.87109375,-52.24609375,-61.03515625
1,1746312981828.0312,-36.62109375,-47.36328125,-29.78515625,-58.10546875
2,1746312981831.9375,-18.06640625,-9.765625,-7.32421875,-42.48046875
3,1746312981835.8438,-31.73828125,-39.0625,-68.359375,-50.29296875
4,1746312981839.75,-12.6953125,-65.4296875,-90.33203125,-12.20703125
5,1746312981843.6562,1.46484375,-15.625,5.37109375,-2.9296875
6,1746312981847.5625,-27.83203125,20.01953125,32.71484375,-47.8515625
7,1746312981851.4688,-41.9921875,-7.32421875,-26.85546875,-30.2734375
8,1746312981855.375,-46.38671875,-47.8515625,-35.15625,-6.34765625
9,1746312981859.2812,-31.73828125,-48.33984375,-23.92578125,-26.3671875
10,1746312981863.1875,-14.6484375,-38.0859375,-20.01953125,-35.15625
11,1746312981867.0938,-38.0859375,-24.4140625,-44.43359375,-41.50390625
0,1746312981871,-41.9921875,-5.37109375,-55.17578125,-42.48046875
1,1746312981874.9062,-31.25,-15.13671875,7.8125,-31.25
2,1746312981878.8125,-37.59765625,-23.92578125,19.04296875,-46.875
3,1746312981882.7188,-28.80859375,-13.18359375,-19.04296875,-42.48046875
4,1746312981886.625,-34.1796875,-8.30078125,-53.22265625,-34.1796875
5,1746312981890.5312,-56.15234375,-27.34375,-58.59375,-47.36328125
6,1746312981894.4375,-56.640625,-40.0390625,-32.2265625,-40.0390625
7,1746312981898.3438,-52.24609375,-48.828125,-13.671875,-40.0390625
8,1746312981902.25,-49.8046875,-35.64453125,-17.08984375,-24.90234375
9,1746312981906.1562,-52.24609375,-35.15625,-27.83203125,-30.2734375
10,1746312981910.0625,-59.08203125,-34.66796875,-24.4140625,-47.8515625
11,1746312981913.9688,-62.98828125,-41.50390625,-27.83203125,-41.9921875
0,1746312981917.875,-65.4296875,-45.8984375,-35.64453125,-45.8984375
1,1746312981921.7812,-63.4765625,-32.2265625,-49.8046875,-63.96484375
2,1746312981925.6875,-65.4296875,-17.578125,-41.9921875,-77.63671875
3,1746312981929.5938,-82.51953125,-10.7421875,-56.640625,-102.5390625
4,1746312981933.5,-81.0546875,-17.578125,-73.2421875,-115.72265625
5,1746312981937.4062,-60.05859375,-24.4140625,-37.109375,-103.02734375
6,1746312981941.3125,-68.359375,-24.90234375,-23.4375,-96.6796875
7,1746312981945.2188,-96.19140625,-33.69140625,-31.73828125,-127.44140625
8,1746312981949.125,-100.5859375,-30.2734375,-31.25,-129.8828125
9,1746312981953.0312,-97.65625,-22.94921875,-19.04296875,-104.4921875
10,1746312981956.9375,-98.6328125,-39.55078125,-33.69140625,-108.88671875
11,1746312981960.8438,-116.2109375,-41.015625,-24.90234375,-116.2109375
0,1746312981964.75,-126.953125,-32.2265625,-13.18359375,-125.48828125
1,1746312981968.6562,-122.55859375,-47.8515625,-15.625,-123.046875
2,1746312981972.5625,-122.0703125,-37.109375,-5.37109375,-106.93359375
3,1746312981976.4688,-132.32421875,-45.8984375,-25.87890625,-115.72265625
4,1746312981980.375,-155.2734375,-62.5,-34.66796875,-127.9296875
5,1746312981984.2812,-153.80859375,-42.48046875,-29.296875,-126.953125
6,1746312981988.1875,-142.08984375,-18.5546875,-11.71875,-114.74609375
7,1746312981992.0938,-141.6015625,-32.71484375,10.25390625,-123.046875
8,1746312981996,-162.109375,-62.98828125,-1.46484375,-150.390625
9,1746312981999.9062,-171.38671875,-54.19921875,-12.20703125,-147.94921875
10,1746312982003.8125,-144.53125,-48.828125,-17.08984375,-123.53515625
11,1746312982007.7188,-130.37109375,-49.31640625,-12.20703125,-106.4453125
0,1746312982011.625,-136.71875,-47.8515625,-6.34765625,-107.421875
1,1746312982015.5312,-134.765625,-44.43359375,-6.8359375,-114.74609375
2,1746312982019.4375,-112.3046875,-41.50390625,23.4375,-80.078125
3,1746312982023.3438,-99.609375,-53.22265625,13.671875,-64.94140625
4,1746312982027.25,-133.7890625,-65.91796875,-39.55078125,-85.9375
5,1746312982031.1562,-160.15625,-63.96484375,-21.97265625,-83.984375
6,1746312982035.0625,-145.99609375,-59.08203125,5.37109375,-81.54296875
7,1746312982038.9688,-117.1875,-62.5,-6.34765625,-22.94921875
8,1746312982042.875,-105.95703125,-51.7578125,-1.953125,-10.25390625
9,1746312982046.7812,-117.1875,-52.24609375,-10.7421875,-73.2421875
10,1746312982050.6875,-105.95703125,-67.3828125,-10.7421875,-47.36328125
11,1746312982054.5938,-78.125,-58.59375,15.13671875,-24.90234375
0,1746312982058.5,-64.453125,-62.5,22.94921875,-20.01953125
1,1746312982062.4062,-52.24609375,-66.89453125,-3.41796875,-2.44140625
2,1746312982066.3125,-20.99609375,-60.546875,-14.6484375,3.90625
3,1746312982070.2188,12.6953125,-73.73046875,3.90625,30.2734375
4,1746312982074.125,28.80859375,-88.8671875,19.04296875,47.36328125
5,1746312982078.0312,48.33984375,-81.54296875,8.30078125,36.62109375
6,1746312982081.9375,74.70703125,-67.3828125,-21.484375,28.3203125
7,1746312982085.8438,112.79296875,-64.453125,-35.64453125,44.43359375
8,1746312982089.75,159.66796875,-68.84765625,-36.1328125,52.734375
9,1746312982093.6562,203.61328125,-80.078125,-31.25,74.21875
10,1746312982097.5625,230.95703125,-80.078125,-32.71484375,83.984375
11,1746312982101.4688,235.3515625,-78.125,-36.1328125,87.40234375
0,1746312982105.375,248.53515625,-73.73046875,-40.52734375,105.95703125
1,1746312982109.2812,258.7890625,-70.3125,-38.0859375,140.625
2,1746312982113.1875,233.3984375,-66.89453125,-39.0625,144.04296875
3,1746312982117.0938,240.234375,-67.3828125,-42.96875,119.140625
4,1746312982121,250.48828125,-75.1953125,-32.2265625,135.7421875
5,1746312982124.9062,250.9765625,-72.265625,-33.69140625,151.85546875
6,1746312982128.8125,246.09375,-68.359375,-31.73828125,139.16015625
7,1746312982132.7188,216.30859375,-74.21875,-25.87890625,129.8828125
8,1746312982136.625,201.171875,-80.56640625,-25.390625,144.04296875
9,1746312982140.5312,216.30859375,-71.2890625,-24.90234375,160.64453125
10,1746312982144.4375,227.05078125,-57.6171875,-26.85546875,164.0625
11,1746312982148.3438,215.8203125,-57.12890625,-30.2734375,150.390625
0,1746312982152.25,212.40234375,-61.5234375,-24.90234375,160.15625
1,1746312982156.1562,194.82421875,-63.96484375,-19.53125,165.0390625
2,1746312982160.0625,195.3125,-61.5234375,-20.99609375,160.64453125
3,1746312982163.9688,223.14453125,-50.29296875,-28.3203125,150.390625
4,1746312982167.875,260.7421875,-16.6015625,-25.390625,146.484375
5,1746312982171.7812,303.22265625,58.59375,-19.04296875,159.66796875
6,1746312982175.6875,319.82421875,102.5390625,-31.73828125,138.671875
7,1746312982179.5938,307.12890625,95.21484375,-31.25,102.5390625
8,1746312982183.5,298.33984375,91.30859375,-20.99609375,100.5859375
9,1746312982187.4062,291.015625,101.5625,-14.16015625,114.2578125
10,1746312982191.3125,262.6953125,132.32421875,-5.37109375,112.3046875
11,1746312982195.2188,243.1640625,164.0625,-5.859375,101.07421875
0,1746312982199.125,238.76953125,183.10546875,-5.37109375,78.125
1,1746312982203.0312,239.74609375,195.80078125,0.48828125,76.66015625
2,1746312982206.9375,221.6796875,194.82421875,1.46484375,83.984375
3,1746312982210.8438,188.96484375,183.59375,5.37109375,88.37890625
4,1746312982214.75,159.66796875,177.734375,3.41796875,81.54296875
5,1746312982218.6562,147.94921875,170.41015625,-2.9296875,62.5
6,1746312982222.5625,140.625,158.69140625,-3.90625,59.5703125
7,1746312982226.4688,121.09375,151.85546875,-9.27734375,52.734375
8,1746312982230.375,96.19140625,148.92578125,-17.578125,37.109375
9,1746312982234.2812,83.49609375,143.5546875,-13.671875,35.64453125
10,1746312982238.1875,78.125,138.671875,-16.11328125,28.80859375
11,1746312982242.0938,73.73046875,136.23046875,-14.6484375,30.76171875
0,1746312982246,60.05859375,114.2578125,-13.18359375,23.4375
1,1746312982249.9062,49.31640625,107.421875,-18.06640625,20.01953125
2,1746312982253.8125,49.31640625,112.79296875,-16.6015625,24.4140625
3,1746312982257.7188,45.8984375,94.23828125,-19.04296875,25.87890625
4,1746312982261.625,22.4609375,73.2421875,-25.87890625,5.37109375
5,1746312982265.5312,5.859375,63.4765625,-40.0390625,-10.25390625
6,1746312982269.4375,0.48828125,43.9453125,-47.36328125,7.8125
7,1746312982273.3438,-8.7890625,24.90234375,-33.203125,12.6953125
8,1746312982277.25,-8.7890625,18.5546875,-33.69140625,-15.13671875
9,1746312982281.1562,-5.859375,12.6953125,-41.015625,-25.390625
10,1746312982285.0625,-19.04296875,18.5546875,-32.71484375,0
11,1746312982288.9688,-35.64453125,32.2265625,-25.390625,13.18359375
0,1746312982292.875,-32.2265625,32.71484375,-28.3203125,4.39453125
1,1746312982296.7812,-42.48046875,25.87890625,-40.0390625,-17.578125
2,1746312982300.6875,-53.7109375,13.18359375,-49.8046875,-11.71875
3,1746312982304.5938,-46.38671875,-0.48828125,-47.36328125,2.44140625
4,1746312982308.5,-38.57421875,-7.8125,-43.45703125,6.34765625
5,1746312982312.4062,-36.62109375,-19.53125,-38.0859375,4.8828125
6,1746312982316.3125,-36.62109375,-27.34375,-33.69140625,0.48828125
7,1746312982320.2188,-40.0390625,-31.25,-36.1328125,4.39453125
8,1746312982324.125,-48.828125,-37.59765625,-38.57421875,5.859375
9,1746312982328.0312,-55.17578125,-41.015625,-40.52734375,-11.71875
10,1746312982331.9375,-62.01171875,-45.8984375,-40.0390625,-25.390625
11,1746312982335.8438,-57.12890625,-54.19921875,-41.015625,0.48828125
0,1746312982339.75,-52.24609375,-47.36328125,-45.8984375,0.48828125
1,1746312982343.6562,-56.640625,-52.734375,-46.38671875,-13.671875
2,1746312982347.5625,-56.15234375,-58.59375,-45.41015625,-6.8359375
3,1746312982351.4688,-58.10546875,-40.52734375,-41.50390625,-17.578125
4,1746312982355.375,-50.29296875,-45.8984375,-33.203125,1.46484375
5,1746312982359.2812,-56.15234375,-53.22265625,-33.69140625,9.765625
6,1746312982363.1875,-68.84765625,-46.38671875,-31.25,-14.6484375
7,1746312982367.0938,-74.70703125,-46.875,-36.62109375,-29.78515625
8,1746312982371,-72.265625,-55.6640625,-45.8984375,-24.90234375
9,1746312982374.9062,-53.7109375,-76.171875,-41.015625,-5.37109375
10,1746312982378.8125,-62.01171875,-72.75390625,-34.66796875,-6.34765625
11,1746312982382.7188,-61.5234375,-57.12890625,-33.69140625,-17.578125
0,1746312982386.625,-50.29296875,-55.6640625,-38.0859375,-20.01953125
1,1746312982390.5312,-49.8046875,-56.640625,-41.015625,-27.34375
2,1746312982394.4375,-53.22265625,-59.5703125,-40.0390625,-30.76171875
3,1746312982398.3438,-48.828125,-51.7578125,-34.1796875,-19.04296875
4,1746312982402.25,-53.7109375,-52.24609375,-37.59765625,-10.7421875
5,1746312982406.1562,-59.08203125,-54.19921875,-39.0625,-19.04296875
6,1746312982410.0625,-39.55078125,-58.10546875,-37.109375,-22.4609375
7,1746312982413.9688,-44.43359375,-68.359375,-38.57421875,-37.59765625
8,1746312982417.875,-50.29296875,-71.77734375,-35.15625,-46.875
9,1746312982421.7812,-39.0625,-67.87109375,-38.0859375,-32.71484375
10,1746312982425.6875,-20.5078125,-60.05859375,-34.66796875,-27.34375
11,1746312982429.5938,-29.78515625,-54.19921875,-26.85546875,-39.0625
0,1746312982433.5,-36.62109375,-61.5234375,-33.203125,-28.80859375
1,1746312982437.4062,-28.3203125,-70.80078125,-38.57421875,-10.25390625
2,1746312982441.3125,-23.4375,-74.70703125,-32.2265625,-19.53125
3,1746312982445.2188,-21.97265625,-66.40625,-27.34375,-30.2734375
4,1746312982449.125,-31.73828125,-60.546875,-26.3671875,-32.2265625
5,1746312982453.0312,-21.97265625,-62.98828125,-31.25,-17.08984375
6,1746312982456.9375,-23.92578125,-61.5234375,-36.1328125,-18.5546875
7,1746312982460.8438,-35.15625,-59.5703125,-34.1796875,-33.203125
8,1746312982464.75,-28.3203125,-54.19921875,-34.1796875,-29.296875
9,1746312982468.6562,-25.87890625,-62.01171875,-34.66796875,-17.08984375
10,1746312982472.5625,-33.203125,-72.265625,-35.15625,-7.8125
11,1746312982476.4688,-23.4375,-72.265625,-39.55078125,-13.671875
0,1746312982480.375,-30.76171875,-64.94140625,-40.52734375,-27.83203125
1,1746312982484.2812,-39.55078125,-66.89453125,-28.80859375,-30.2734375
2,1746312982488.1875,-26.3671875,-71.2890625,-27.34375,-16.11328125
3,1746312982492.0938,-27.34375,-62.01171875,-29.296875,0.9765625
4,1746312982496,-39.0625,-50.78125,-29.78515625,-12.6953125
5,1746312982499.9062,-33.203125,-53.7109375,-32.2265625,-42.96875
6,1746312982503.8125,-24.4140625,-61.03515625,-28.80859375,-33.69140625
7,1746312982507.7188,-22.4609375,-53.7109375,-26.85546875,8.7890625
8,1746312982511.625,-24.4140625,-42.48046875,-26.85546875,-4.8828125
9,1746312982515.5312,-36.1328125,-52.24609375,-27.34375,-49.31640625
10,1746312982519.4375,-39.55078125,-67.3828125,-31.25,-30.2734375
11,1746312982523.3438,-38.0859375,-62.01171875,-30.2734375,-7.32421875
0,1746312982527.25,-43.45703125,-62.98828125,-31.73828125,-36.62109375
1,1746312982531.1562,-52.734375,-64.453125,-38.57421875,-52.24609375
2,1746312982535.0625,-46.875,-50.78125,-39.0625,-31.25
3,1746312982538.9688,-36.1328125,-46.875,-33.203125,-34.1796875
4,1746312982542.875,-31.73828125,-52.24609375,-22.4609375,-48.828125
5,1746312982546.7812,-26.3671875,-48.828125,-15.13671875,-61.03515625
6,1746312982550.6875,-39.55078125,-49.8046875,-18.5546875,-67.3828125
7,1746312982554.5938,-40.0390625,-56.15234375,-27.83203125,-71.2890625
8,1746312982558.5,-28.80859375,-57.6171875,-33.203125,-70.80078125
9,1746312982562.4062,-31.25,-57.12890625,-20.5078125,-78.61328125
10,1746312982566.3125,-33.203125,-57.6171875,-19.04296875,-78.61328125
11,1746312982570.2188,-31.25,-51.7578125,-22.4609375,-68.84765625
0,1746312982574.125,-26.3671875,-54.19921875,-20.99609375,-64.453125
1,1746312982578.0312,-32.71484375,-54.6875,-21.97265625,-53.22265625
2,1746312982581.9375,-30.2734375,-45.8984375,-19.04296875,-51.7578125
3,1746312982585.8438,-21.97265625,-53.22265625,-19.04296875,-28.3203125
4,1746312982589.75,-16.11328125,-54.6875,-22.94921875,3.90625
5,1746312982593.6562,-21.484375,-53.22265625,-33.203125,-0.48828125
6,1746312982597.5625,-27.34375,-74.21875,-31.73828125,-10.7421875
7,1746312982601.4688,-24.90234375,-86.9140625,-25.87890625,11.71875
8,1746312982605.375,-24.90234375,-62.98828125,-26.85546875,37.109375
9,1746312982609.2812,-26.85546875,-43.9453125,-25.390625,48.828125
10,1746312982613.1875,-22.94921875,-51.7578125,-22.94921875,49.8046875
11,1746312982617.0938,-18.5546875,-50.78125,-26.3671875,57.12890625
0,1746312982621,-12.6953125,-47.8515625,-31.73828125,72.75390625
1,1746312982624.9062,-18.5546875,-56.640625,-29.78515625,80.078125
2,1746312982628.8125,-31.73828125,-57.6171875,-22.4609375,65.4296875
3,1746312982632.7188,-33.69140625,-52.24609375,-26.3671875,49.8046875
4,1746312982636.625,-20.5078125,-48.33984375,-21.484375,53.7109375
5,1746312982640.5312,-17.08984375,-33.203125,-18.06640625,45.8984375
6,1746312982644.4375,-21.484375,-31.73828125,-21.484375,59.08203125
7,1746312982648.3438,-23.4375,-48.33984375,-18.5546875,59.08203125
8,1746312982652.25,-24.90234375,-58.10546875,-13.18359375,50.78125
9,1746312982656.1562,-18.5546875,-63.4765625,-10.7421875,48.33984375
10,1746312982660.0625,-17.578125,-55.17578125,-17.08984375,46.38671875
11,1746312982663.9688,-19.04296875,-41.015625,-20.99609375,36.62109375
0,1746312982667.875,-19.04296875,-42.48046875,-25.87890625,32.71484375
1,1746312982671.7812,-23.4375,-41.9921875,-28.80859375,42.96875
2,1746312982675.6875,-25.87890625,-50.29296875,-26.85546875,33.203125
3,1746312982679.5938,-23.4375,-58.59375,-27.34375,33.203125
4,1746312982683.5,-21.97265625,-54.19921875,-30.2734375,18.06640625
5,1746312982687.4062,-27.83203125,-61.5234375,-28.3203125,-4.8828125
6,1746312982691.3125,-31.25,-66.40625,-27.83203125,-2.44140625
7,1746312982695.2188,-27.34375,-60.546875,-35.15625,-7.32421875
8,1746312982699.125,-33.69140625,-65.91796875,-38.0859375,8.30078125
9,1746312982703.0312,-26.85546875,-72.265625,-32.71484375,0.48828125
10,1746312982706.9375,-20.99609375,-67.3828125,-32.2265625,-19.04296875
11,1746312982710.8438,-28.80859375,-65.91796875,-31.25,-23.4375
0,1746312982714.75,-33.69140625,-66.40625,-31.73828125,-37.109375
1,1746312982718.6562,-29.296875,-58.10546875,-29.296875,-29.78515625
2,1746312982722.5625,-24.4140625,-40.0390625,-25.390625,-20.5078125
3,1746312982726.4688,-27.34375,-42.96875,-24.4140625,-31.25
4,1746312982730.375,-36.62109375,-52.24609375,-20.99609375,-20.99609375
5,1746312982734.2812,-32.2265625,-53.7109375,-27.83203125,4.8828125
6,1746312982738.1875,-25.390625,-61.5234375,-38.0859375,-24.4140625
7,1746312982742.0938,-23.92578125,-58.10546875,-39.55078125,-59.08203125
8,1746312982746,-30.76171875,-56.640625,-33.203125,-60.05859375
9,1746312982749.9062,-43.9453125,-57.12890625,-35.64453125,-57.6171875
10,1746312982753.8125,-36.1328125,-51.7578125,-41.015625,-45.8984375
11,1746312982757.7188,-22.4609375,-46.875,-30.2734375,-25.87890625
0,1746312982761.625,-23.92578125,-40.52734375,-18.5546875,-27.34375
1,1746312982765.5312,-33.69140625,-45.8984375,-20.99609375,-56.640625
2,1746312982769.4375,-33.69140625,-48.828125,-22.94921875,-56.15234375
3,1746312982773.3438,-30.2734375,-50.78125,-23.4375,-30.76171875
4,1746312982777.25,-38.57421875,-59.5703125,-26.85546875,-36.62109375
5,1746312982781.1562,-37.109375,-54.19921875,-23.92578125,-33.203125
6,1746312982785.0625,-40.0390625,-42.48046875,-24.4140625,-38.0859375
7,1746312982788.9688,-29.78515625,-47.8515625,-31.25,-43.45703125
8,1746312982792.875,-28.80859375,-60.05859375,-34.1796875,-45.41015625
9,1746312982796.7812,-51.7578125,-65.91796875,-27.83203125,-65.4296875
10,1746312982800.6875,-43.9453125,-62.5,-16.6015625,-57.12890625
11,1746312982804.5938,-25.390625,-58.59375,-15.13671875,-20.99609375
0,1746312982808.5,-26.3671875,-51.7578125,-22.4609375,-41.015625
1,1746312982812.4062,-41.015625,-59.08203125,-27.34375,-69.82421875
2,1746312982816.3125,-30.2734375,-73.73046875,-25.87890625,-67.87109375
3,1746312982820.2188,-22.4609375,-75.1953125,-21.484375,-71.2890625
4,1746312982824.125,-33.69140625,-65.91796875,-20.99609375,-62.5
5,1746312982828.0312,-32.71484375,-58.59375,-27.34375,-47.8515625
6,1746312982831.9375,-30.2734375,-63.4765625,-32.2265625,-53.22265625
7,1746312982835.8438,-26.3671875,-64.94140625,-29.78515625,-47.8515625
8,1746312982839.75,-29.78515625,-62.5,-23.4375,-38.57421875
9,1746312982843.6562,-35.15625,-64.453125,-27.34375,-48.33984375
10,1746312982847.5625,-29.296875,-64.453125,-32.2265625,-68.84765625
11,1746312982851.4688,-30.76171875,-60.05859375,-31.25,-67.3828125
0,1746312982855.375,-22.94921875,-63.4765625,-26.3671875,-48.33984375
1,1746312982859.2812,-12.20703125,-63.4765625,-21.97265625,-41.50390625
2,1746312982863.1875,-27.83203125,-69.82421875,-23.92578125,-41.9921875
3,1746312982867.0938,-29.296875,-64.94140625,-30.76171875,-42.96875
4,1746312982871,-26.85546875,-54.6875,-33.69140625,-31.73828125
5,1746312982874.9062,-32.71484375,-49.31640625,-23.92578125,-33.69140625
6,1746312982878.8125,-39.0625,-42.48046875,-23.4375,-51.7578125
7,1746312982882.7188,-38.0859375,-43.9453125,-32.2265625,-75.68359375
8,1746312982886.625,-33.69140625,-42.96875,-25.390625,-70.80078125
9,1746312982890.5312,-29.296875,-49.8046875,-17.578125,-22.4609375
10,1746312982894.4375,-31.25,-49.8046875,-19.53125,4.39453125
11,1746312982898.3438,-30.2734375,-47.36328125,-32.2265625,-38.57421875
0,1746312982902.25,-28.80859375,-56.640625,-36.1328125,-81.54296875
1,1746312982906.1562,-49.8046875,-45.8984375,-22.4609375,-57.12890625
2,1746312982910.0625,-48.828125,-45.8984375,-16.11328125,-44.43359375
3,1746312982913.9688,-30.76171875,-57.12890625,-17.08984375,-43.45703125
4,1746312982917.875,-22.94921875,-48.828125,-18.06640625,-50.78125
5,1746312982921.7812,-1.953125,-41.50390625,-15.625,-50.78125
6,1746312982925.6875,0.9765625,-47.8515625,-18.5546875,-13.671875
7,1746312982929.5938,-14.6484375,-51.26953125,-22.4609375,-24.4140625
8,1746312982933.5,-21.97265625,-48.828125,-17.08984375,-51.7578125
9,1746312982937.4062,-24.90234375,-41.015625,-21.484375,-34.1796875
10,1746312982941.3125,-25.390625,-36.1328125,-24.90234375,-21.484375
11,1746312982945.2188,-29.296875,-33.203125,-18.06640625,-29.78515625
0,1746312982949.125,-36.62109375,-42.96875,-9.765625,-24.90234375
1,1746312982953.0312,-48.828125,-58.59375,-11.71875,-18.06640625
2,1746312982956.9375,-46.38671875,-52.24609375,-24.90234375,-11.71875
3,1746312982960.8438,-34.1796875,-40.52734375,-33.203125,-30.2734375
4,1746312982964.75,-28.80859375,-53.7109375,-26.3671875,-60.05859375
5,1746312982968.6562,-30.76171875,-69.82421875,-12.20703125,-16.11328125
6,1746312982972.5625,-25.87890625,-75.1953125,-11.71875,14.6484375
7,1746312982976.4688,-27.34375,-55.6640625,-19.04296875,-40.52734375
8,1746312982980.375,-34.1796875,-38.0859375,-31.73828125,-57.12890625
9,1746312982984.2812,-34.66796875,-66.40625,-35.64453125,-33.69140625
10,1746312982988.1875,-35.15625,-62.98828125,-29.78515625,-43.9453125
11,1746312982992.0938,-33.69140625,-13.671875,-37.59765625,-64.94140625
0,1746312982996,-20.5078125,-35.64453125,-25.87890625,-57.6171875
1,1746312982999.9062,-12.6953125,-103.515625,4.39453125,-44.43359375
2,1746312983003.8125,-20.5078125,-91.30859375,-1.46484375,-16.11328125
3,1746312983007.7188,-13.671875,-31.25,-2.9296875,-18.06640625
4,1746312983011.625,-19.04296875,-51.26953125,-4.39453125,-33.69140625
5,1746312983015.5312,-40.52734375,-85.44921875,-15.13671875,-32.2265625
6,1746312983019.4375,-48.828125,-67.3828125,-11.23046875,-40.0390625
7,1746312983023.3438,-38.0859375,-52.734375,-20.5078125,-30.76171875
8,1746312983027.25,-29.78515625,-71.2890625,-33.69140625,-19.53125
9,1746312983031.1562,-36.1328125,-92.7734375,-29.296875,-30.2734375
10,1746312983035.0625,-35.15625,-74.21875,-24.90234375,-44.43359375
11,1746312983038.9688,-26.85546875,-70.80078125,-15.625,-27.83203125
0,1746312983042.875,-47.36328125,-94.23828125,-3.90625,-24.4140625
1,1746312983046.7812,-62.98828125,-101.5625,-20.5078125,-30.2734375
2,1746312983050.6875,-62.5,-125.48828125,-31.73828125,-17.08984375
3,1746312983054.5938,-60.05859375,-156.25,-11.23046875,-29.78515625
4,1746312983058.5,-75.68359375,-107.91015625,-4.8828125,-56.15234375
5,1746312983062.4062,-100.09765625,-65.4296875,-0.9765625,-94.7265625
6,1746312983066.3125,-104.98046875,-102.5390625,9.27734375,-112.79296875
7,1746312983070.2188,-105.46875,-138.671875,22.4609375,-87.890625
8,1746312983074.125,-122.0703125,-137.20703125,18.06640625,-75.68359375
9,1746312983078.0312,-135.25390625,-143.5546875,12.6953125,-101.5625
10,1746312983081.9375,-143.06640625,-143.06640625,27.83203125,-97.65625
11,1746312983085.8438,-149.90234375,-148.92578125,16.11328125,-79.1015625
0,1746312983089.75,-149.4140625,-171.875,5.37109375,-85.44921875
1,1746312983093.6562,-152.34375,-158.203125,20.5078125,-71.2890625
2,1746312983097.5625,-152.83203125,-129.8828125,-1.46484375,-68.359375
3,1746312983101.4688,-160.64453125,-166.50390625,3.41796875,-107.91015625
4,1746312983105.375,-159.1796875,-171.38671875,46.38671875,-118.65234375
5,1746312983109.2812,-152.83203125,-123.53515625,40.52734375,-130.37109375
6,1746312983113.1875,-174.8046875,-111.328125,6.34765625,-177.734375
7,1746312983117.0938,-176.26953125,-126.953125,7.8125,-159.66796875
8,1746312983121,-157.2265625,-138.18359375,23.4375,-82.03125
9,1746312983124.9062,-149.4140625,-140.625,23.4375,-111.328125
10,1746312983128.8125,-142.578125,-131.8359375,37.59765625,-159.66796875
11,1746312983132.7188,-164.0625,-126.46484375,35.64453125,-119.62890625
0,1746312983136.625,-170.8984375,-94.23828125,0.48828125,-110.3515625
1,1746312983140.5312,-142.08984375,-77.1484375,1.953125,-127.44140625
2,1746312983144.4375,-130.859375,-82.51953125,24.90234375,-116.2109375
3,1746312983148.3438,-132.8125,-69.82421875,17.08984375,-116.69921875
4,1746312983152.25,-128.90625,-83.0078125,-7.8125,-99.12109375
5,1746312983156.1562,-124.0234375,-104.98046875,-7.8125,-50.29296875
6,1746312983160.0625,-114.2578125,-97.65625,0.9765625,-103.515625
7,1746312983163.9688,-104.00390625,-86.9140625,3.41796875,-141.6015625
8,1746312983167.875,-87.40234375,-83.984375,8.30078125,-131.34765625
9,1746312983171.7812,-66.40625,-96.19140625,2.44140625,-102.05078125
10,1746312983175.6875,-38.57421875,-105.46875,3.90625,-28.3203125
11,1746312983179.5938,-45.8984375,-78.61328125,6.34765625,1.46484375
0,1746312983183.5,-39.0625,-53.22265625,18.06640625,-39.55078125
1,1746312983187.4062,-9.27734375,-54.19921875,20.01953125,-54.19921875
2,1746312983191.3125,-36.62109375,-57.12890625,-14.16015625,-37.59765625
3,1746312983195.2188,-41.50390625,-34.66796875,-22.4609375,-59.08203125
4,1746312983199.125,-25.87890625,-37.109375,21.484375,-56.15234375
5,1746312983203.0312,-21.484375,-47.36328125,41.9921875,-37.109375
6,1746312983206.9375,-7.32421875,-33.69140625,16.11328125,19.04296875
7,1746312983210.8438,-5.37109375,-56.640625,-9.27734375,53.7109375
8,1746312983214.75,1.46484375,-88.8671875,-5.37109375,32.71484375
9,1746312983218.6562,18.5546875,-63.96484375,12.6953125,-2.44140625
10,1746312983222.5625,10.7421875,-42.96875,4.8828125,-17.08984375
11,1746312983226.4688,22.4609375,-19.53125,-4.39453125,-15.13671875
0,1746312983230.375,41.015625,-17.08984375,-13.671875,-18.06640625
1,1746312983234.2812,25.87890625,-24.4140625,-25.87890625,0
2,1746312983238.1875,33.69140625,-20.99609375,-27.83203125,4.8828125
3,1746312983242.0938,54.6875,-25.87890625,-24.4140625,15.13671875
4,1746312983246,40.0390625,-48.33984375,-20.5078125,20.99609375
5,1746312983249.9062,18.5546875,-59.08203125,-30.2734375,24.90234375
6,1746312983253.8125,20.01953125,-41.50390625,-35.15625,52.734375
7,1746312983257.7188,43.45703125,-36.1328125,-25.87890625,43.9453125
8,1746312983261.625,46.875,-41.9921875,-17.578125,31.25
9,1746312983265.5312,27.83203125,-23.92578125,-27.34375,25.87890625
10,1746312983269.4375,47.8515625,-26.3671875,-36.1328125,47.36328125
11,1746312983273.3438,50.29296875,-61.5234375,-34.1796875,50.78125
0,1746312983277.25,19.53125,-41.015625,-34.66796875,-6.34765625
1,1746312983281.1562,-1.953125,-8.7890625,-37.59765625,17.578125
2,1746312983285.0625,7.32421875,-21.97265625,-10.7421875,64.453125
3,1746312983288.9688,15.13671875,-28.3203125,-3.90625,21.484375
4,1746312983292.875,-10.7421875,-18.06640625,-1.46484375,-23.92578125
5,1746312983296.7812,-20.99609375,-24.4140625,-5.859375,-45.8984375
6,1746312983300.6875,-32.71484375,-39.0625,-36.1328125,-13.671875
7,1746312983304.5938,-22.94921875,-41.015625,-40.52734375,5.859375
8,1746312983308.5,-9.27734375,-20.99609375,-29.78515625,0
9,1746312983312.4062,-8.7890625,-9.27734375,-16.6015625,-9.765625
10,1746312983316.3125,8.30078125,-6.34765625,-35.15625,14.6484375
11,1746312983320.2188,16.11328125,-40.0390625,-35.64453125,70.80078125
0,1746312983324.125,14.6484375,-65.4296875,-30.2734375,12.20703125
1,1746312983328.0312,36.62109375,-38.0859375,-32.71484375,-20.99609375
2,1746312983331.9375,41.015625,-26.3671875,-20.99609375,-6.34765625
3,1746312983335.8438,17.578125,-16.6015625,-43.45703125,-29.296875
4,1746312983339.75,13.671875,-42.48046875,-73.2421875,14.6484375
5,1746312983343.6562,23.4375,-48.828125,-61.5234375,14.16015625
6,1746312983347.5625,21.484375,-37.59765625,-26.3671875,-55.6640625
7,1746312983351.4688,35.15625,-53.22265625,-10.7421875,-85.44921875
8,1746312983355.375,74.21875,-26.85546875,-27.34375,-77.1484375
9,1746312983359.2812,115.234375,-2.44140625,-47.36328125,-35.64453125
10,1746312983363.1875,98.14453125,-17.578125,-56.15234375,-19.04296875
11,1746312983367.0938,63.4765625,-24.90234375,-54.6875,-40.52734375
0,1746312983371,68.84765625,-13.671875,-43.45703125,-43.9453125
1,1746312983374.9062,67.3828125,2.44140625,-39.0625,-47.36328125
2,1746312983378.8125,62.98828125,-12.20703125,-15.625,-41.50390625
3,1746312983382.7188,67.3828125,-52.734375,-4.8828125,-11.23046875
4,1746312983386.625,61.03515625,-57.12890625,-34.1796875,-23.4375
5,1746312983390.5312,56.15234375,-29.296875,-53.22265625,-19.53125
6,1746312983394.4375,48.828125,-20.01953125,-59.5703125,-35.15625
7,1746312983398.3438,52.734375,-24.4140625,-56.15234375,-57.6171875
8,1746312983402.25,64.453125,-19.04296875,-44.921875,-3.90625
9,1746312983406.1562,70.80078125,-41.015625,-32.71484375,13.18359375
10,1746312983410.0625,52.734375,-62.5,-23.92578125,-41.50390625
11,1746312983413.9688,42.48046875,-63.4765625,-10.7421875,-50.29296875
0,1746312983417.875,26.85546875,-30.2734375,-5.37109375,-65.91796875
1,1746312983421.7812,-16.11328125,1.46484375,-13.671875,-60.05859375
2,1746312983425.6875,-7.32421875,-4.39453125,-43.9453125,-14.6484375
3,1746312983429.5938,6.34765625,-11.71875,-67.3828125,-38.0859375
4,1746312983433.5,-9.27734375,-33.69140625,-60.546875,-65.4296875
5,1746312983437.4062,15.13671875,-27.34375,-37.59765625,-62.01171875
6,1746312983441.3125,32.71484375,-23.4375,-29.296875,-30.2734375
7,1746312983445.2188,5.859375,-35.15625,-82.51953125,0.9765625
8,1746312983449.125,6.34765625,-39.55078125,-32.71484375,-51.26953125
9,1746312983453.0312,6.8359375,-49.31640625,41.50390625,-88.8671875
10,1746312983456.9375,-2.44140625,-38.0859375,8.7890625,-70.3125
11,1746312983460.8438,-15.13671875,-42.96875,-24.4140625,-104.98046875
0,1746312983464.75,-44.921875,-64.453125,-45.8984375,-152.83203125
1,1746312983468.6562,-63.4765625,-67.87109375,-25.390625,-165.52734375
2,1746312983472.5625,-61.5234375,-77.1484375,6.34765625,-152.83203125
3,1746312983476.4688,-44.921875,-53.7109375,-23.92578125,-154.78515625
4,1746312983480.375,-38.0859375,0.9765625,-46.38671875,-174.8046875
5,1746312983484.2812,-31.73828125,-8.30078125,-30.2734375,-201.66015625
6,1746312983488.1875,-40.52734375,-35.15625,-29.296875,-241.69921875
7,1746312983492.0938,-57.6171875,-33.203125,-20.01953125,-263.671875
8,1746312983496,-58.10546875,-29.78515625,-22.94921875,-276.3671875
9,1746312983499.9062,-63.96484375,-51.26953125,-30.76171875,-270.5078125
10,1746312983503.8125,-55.6640625,-101.07421875,-20.5078125,-236.328125
11,1746312983507.7188,-36.1328125,-112.79296875,-15.625,-213.8671875
0,1746312983511.625,-64.94140625,-68.359375,-56.15234375,-262.6953125
1,1746312983515.5312,-107.91015625,-57.12890625,-51.7578125,-262.6953125
2,1746312983519.4375,-101.5625,-77.1484375,-19.53125,-220.21484375
3,1746312983523.3438,-89.84375,-57.6171875,-32.71484375,-242.67578125
4,1746312983527.25,-95.703125,-37.109375,-56.640625,-271.484375
5,1746312983531.1562,-108.88671875,-37.59765625,-64.453125,-254.8828125
6,1746312983535.0625,-105.46875,-38.0859375,-12.6953125,-239.2578125
7,1746312983538.9688,-86.42578125,-55.6640625,2.9296875,-185.546875
8,1746312983542.875,-77.1484375,-76.171875,-28.80859375,-142.578125
9,1746312983546.7812,-57.12890625,-77.63671875,-13.671875,-151.3671875
10,1746312983550.6875,-68.84765625,-75.68359375,-6.34765625,-171.38671875
11,1746312983554.5938,-100.09765625,-70.80078125,-51.7578125,-185.546875
0,1746312983558.5,-82.51953125,-69.3359375,-67.87109375,-153.80859375
1,1746312983562.4062,-59.08203125,-58.10546875,-77.1484375,-145.99609375
2,1746312983566.3125,-55.6640625,-35.64453125,-40.52734375,-131.34765625
3,1746312983570.2188,-38.0859375,-47.36328125,-14.6484375,-59.08203125
4,1746312983574.125,-28.3203125,-60.05859375,-42.48046875,-20.01953125
5,1746312983578.0312,-66.40625,-42.96875,-51.26953125,-76.66015625
6,1746312983581.9375,-74.21875,-41.9921875,-46.38671875,-133.7890625
7,1746312983585.8438,-38.57421875,-98.14453125,-42.48046875,-100.09765625
8,1746312983589.75,-51.7578125,-77.63671875,-38.57421875,-99.12109375
9,1746312983593.6562,-68.84765625,-26.85546875,-20.99609375,-118.65234375
10,1746312983597.5625,-58.59375,-21.97265625,-14.16015625,-74.21875
11,1746312983601.4688,-53.7109375,-46.38671875,-41.9921875,-36.1328125
0,1746312983605.375,-41.9921875,-85.9375,-49.31640625,-7.32421875
1,1746312983609.2812,-42.96875,-55.17578125,-49.8046875,-18.06640625
2,1746312983613.1875,-48.828125,-36.62109375,-45.41015625,-8.30078125
3,1746312983617.0938,-56.640625,-73.73046875,-41.50390625,15.13671875
4,1746312983621,-55.6640625,-68.359375,-32.2265625,-19.04296875
5,1746312983624.9062,-45.8984375,-41.015625,-34.1796875,-46.38671875
6,1746312983628.8125,-62.01171875,-59.08203125,-49.8046875,-64.94140625
7,1746312983632.7188,-62.01171875,-46.38671875,-39.55078125,-54.19921875
8,1746312983636.625,-47.8515625,-27.83203125,-39.55078125,12.20703125
9,1746312983640.5312,-62.01171875,-48.828125,-24.4140625,33.69140625
10,1746312983644.4375,-70.3125,-94.7265625,-20.99609375,-17.578125
11,1746312983648.3438,-72.265625,-116.69921875,-22.4609375,-51.26953125
0,1746312983652.25,-71.2890625,-45.8984375,-40.52734375,-23.4375
1,1746312983656.1562,-58.10546875,-15.13671875,-33.203125,-3.41796875
2,1746312983660.0625,-55.17578125,-50.78125,-13.671875,5.37109375
3,1746312983663.9688,-60.05859375,-62.98828125,-45.8984375,15.13671875
4,1746312983667.875,-74.70703125,-28.80859375,-48.33984375,4.8828125
5,1746312983671.7812,-80.56640625,-42.96875,-36.1328125,10.7421875
6,1746312983675.6875,-54.19921875,-70.80078125,-65.91796875,62.01171875
7,1746312983679.5938,-52.734375,-59.5703125,-49.31640625,39.0625
8,1746312983683.5,-60.05859375,-60.05859375,-11.23046875,-31.25
9,1746312983687.4062,-50.78125,-70.3125,-21.97265625,-56.640625
10,1746312983691.3125,-46.38671875,-113.76953125,-40.52734375,-17.578125
11,1746312983695.2188,-44.43359375,-93.75,-53.7109375,20.5078125
0,1746312983699.125,-47.8515625,-33.203125,-42.96875,-13.18359375
1,1746312983703.0312,-77.1484375,-81.0546875,-26.85546875,-53.22265625
2,1746312983706.9375,-104.98046875,-102.5390625,-44.43359375,-68.359375
3,1746312983710.8438,-105.46875,-61.03515625,-56.640625,-62.5
4,1746312983714.75,-99.12109375,-43.45703125,-42.48046875,-63.96484375
5,1746312983718.6562,-80.078125,-32.71484375,-21.484375,-93.75
6,1746312983722.5625,-57.12890625,-41.50390625,-11.71875,-61.5234375
7,1746312983726.4688,-44.43359375,-67.87109375,-2.44140625,-19.53125
8,1746312983730.375,-42.96875,-67.87109375,-25.390625,5.37109375
9,1746312983734.2812,-59.08203125,-57.6171875,-53.22265625,-8.7890625
10,1746312983738.1875,-48.33984375,-74.70703125,-43.9453125,-30.76171875
11,1746312983742.0938,-35.15625,-52.24609375,-16.6015625,-32.71484375
0,1746312983746,-65.4296875,-16.11328125,-20.99609375,-56.640625
1,1746312983749.9062,-82.03125,-28.80859375,-52.734375,-66.89453125
2,1746312983753.8125,-66.40625,-46.38671875,-51.26953125,-30.2734375
3,1746312983757.7188,-52.734375,-47.8515625,-40.52734375,-10.25390625
4,1746312983761.625,-47.8515625,-45.8984375,-43.45703125,-53.7109375
5,1746312983765.5312,-37.59765625,-42.96875,-40.0390625,-10.25390625
6,1746312983769.4375,-30.2734375,-72.75390625,-27.83203125,-3.41796875
7,1746312983773.3438,-35.64453125,-115.72265625,-2.9296875,-28.80859375
8,1746312983777.25,-29.78515625,-58.59375,-8.7890625,-3.90625
9,1746312983781.1562,-40.0390625,2.9296875,-46.875,-18.5546875
10,1746312983785.0625,-26.85546875,-2.9296875,-34.66796875,1.46484375
11,1746312983788.9688,-17.08984375,-2.44140625,-31.25,36.1328125
0,1746312983792.875,-53.7109375,-37.109375,-78.125,-50.78125
1,1746312983796.7812,-66.89453125,-78.125,-61.5234375,-104.00390625
2,1746312983800.6875,-55.6640625,-64.94140625,-7.8125,-71.77734375
3,1746312983804.5938,-53.7109375,-60.05859375,8.30078125,-62.5
4,1746312983808.5,-44.43359375,-56.15234375,-20.5078125,-47.36328125
5,1746312983812.4062,-36.1328125,-45.41015625,-48.33984375,-47.8515625
6,1746312983816.3125,-35.64453125,-61.5234375,-57.6171875,-27.83203125
7,1746312983820.2188,-35.64453125,-70.3125,-55.17578125,-14.16015625
8,1746312983824.125,-47.8515625,-73.73046875,-39.0625,-48.828125
9,1746312983828.0312,-34.66796875,-80.56640625,-7.32421875,-24.4140625
10,1746312983831.9375,-20.01953125,-61.03515625,-18.5546875,-8.30078125
11,1746312983835.8438,-45.8984375,-55.6640625,-52.24609375,-46.38671875
0,1746312983839.75,-64.94140625,-87.40234375,-48.33984375,-28.80859375
1,1746312983843.6562,-51.26953125,-63.96484375,-30.2734375,-20.99609375
2,1746312983847.5625,-46.875,-20.01953125,-33.69140625,-47.36328125
3,1746312983851.4688,-40.52734375,-40.0390625,-30.76171875,-23.4375
4,1746312983855.375,-26.85546875,-80.56640625,-16.11328125,-25.390625
5,1746312983859.2812,-29.78515625,-66.89453125,-34.1796875,-28.3203125
6,1746312983863.1875,-45.8984375,-46.875,-55.6640625,-34.66796875
7,1746312983867.0938,-43.9453125,-58.59375,-53.22265625,-48.33984375
8,1746312983871,-20.01953125,-57.6171875,-30.76171875,-27.83203125
9,1746312983874.9062,-25.390625,-71.2890625,-24.4140625,-31.73828125
10,1746312983878.8125,-38.57421875,-54.6875,-28.3203125,-40.0390625
11,1746312983882.7188,-33.69140625,-28.80859375,-46.38671875,-32.2265625
0,1746312983886.625,-22.4609375,-53.7109375,-48.33984375,-17.08984375
1,1746312983890.5312,-20.01953125,-72.265625,-30.2734375,-4.39453125
2,1746312983894.4375,-38.0859375,-92.28515625,-33.69140625,-5.37109375
3,1746312983898.3438,-62.5,-88.37890625,-54.19921875,-35.64453125
4,1746312983902.25,-83.0078125,-40.0390625,-60.546875,-59.08203125
5,1746312983906.1562,-69.3359375,-5.859375,-10.7421875,-51.7578125
6,1746312983910.0625,-43.9453125,-45.41015625,-13.18359375,-42.96875
7,1746312983913.9688,-68.359375,-60.546875,-60.546875,-33.203125
8,1746312983917.875,-88.8671875,-47.36328125,-53.22265625,-50.29296875
9,1746312983921.7812,-84.9609375,-51.26953125,-37.59765625,-78.125
10,1746312983925.6875,-94.7265625,-38.0859375,-17.08984375,-66.89453125
11,1746312983929.5938,-76.171875,-42.96875,11.23046875,-58.59375
0,1746312983933.5,-77.63671875,-64.94140625,-30.2734375,-72.75390625
1,1746312983937.4062,-90.33203125,-66.89453125,-76.66015625,-69.3359375
2,1746312983941.3125,-67.87109375,-54.19921875,-56.640625,-42.48046875
3,1746312983945.2188,-72.75390625,-67.3828125,-34.66796875,-56.640625
4,1746312983949.125,-83.49609375,-86.42578125,-23.4375,-56.15234375
5,1746312983953.0312,-87.40234375,-51.7578125,-46.38671875,-67.3828125
6,1746312983956.9375,-67.87109375,-8.7890625,-45.8984375,-69.3359375
7,1746312983960.8438,-54.19921875,-17.08984375,-28.80859375,-44.43359375
8,1746312983964.75,-71.77734375,-56.640625,-25.390625,-52.24609375
9,1746312983968.6562,-41.015625,-52.734375,-20.99609375,-11.23046875
10,1746312983972.5625,-30.76171875,-43.9453125,-39.0625,-10.7421875
11,1746312983976.4688,-59.5703125,-60.05859375,-28.3203125,-41.9921875
0,1746312983980.375,-63.4765625,-68.84765625,-10.7421875,-47.8515625
1,1746312983984.2812,-57.12890625,-63.96484375,-22.4609375,-45.8984375
2,1746312983988.1875,-57.6171875,-35.15625,-50.29296875,-23.4375
3,1746312983992.0938,-47.36328125,-26.85546875,-44.921875,-26.3671875
4,1746312983996,-41.50390625,-41.50390625,-28.80859375,-14.6484375
5,1746312983999.9062,-43.9453125,-50.29296875,-38.57421875,-30.76171875
6,1746312984003.8125,-28.80859375,-66.40625,-42.96875,-42.48046875
7,1746312984007.7188,-31.25,-45.8984375,-25.87890625,-16.6015625
8,1746312984011.625,-47.36328125,10.7421875,-4.39453125,-9.765625
9,1746312984015.5312,-38.57421875,-19.04296875,-0.48828125,-32.71484375
10,1746312984019.4375,-24.4140625,-76.66015625,-8.7890625,-23.4375
11,1746312984023.3438,-38.57421875,-84.47265625,-59.08203125,-22.94921875
0,1746312984027.25,-43.45703125,-61.5234375,-71.2890625,-35.64453125
1,1746312984031.1562,-33.69140625,-17.08984375,-51.26953125,-24.4140625
2,1746312984035.0625,-39.0625,-27.83203125,-25.87890625,-27.34375
3,1746312984038.9688,-33.203125,-71.77734375,-47.36328125,-15.625
4,1746312984042.875,-18.06640625,-49.8046875,-84.9609375,8.7890625
5,1746312984046.7812,-21.97265625,-5.859375,-32.71484375,-10.7421875
6,1746312984050.6875,-30.2734375,-38.57421875,8.30078125,-46.38671875
7,1746312984054.5938,-10.25390625,-72.75390625,7.32421875,-21.484375
8,1746312984058.5,-7.32421875,-52.734375,-10.25390625,9.27734375
9,1746312984062.4062,-52.24609375,-41.50390625,-19.53125,-57.6171875
10,1746312984066.3125,-39.55078125,-37.59765625,-40.0390625,-72.75390625
11,1746312984070.2188,-15.13671875,-24.90234375,-59.5703125,-46.38671875
0,1746312984074.125,-44.43359375,-47.8515625,-42.96875,-48.33984375
1,1746312984078.0312,-47.36328125,-38.0859375,-36.62109375,-35.64453125
2,1746312984081.9375,-46.875,8.7890625,-35.15625,-38.0859375
3,1746312984085.8438,-58.59375,-20.99609375,-23.4375,-31.25
4,1746312984089.75,-60.05859375,-68.84765625,-16.6015625,-0.48828125
5,1746312984093.6562,-63.96484375,-24.4140625,-17.578125,4.8828125
6,1746312984097.5625,-80.56640625,9.27734375,-30.2734375,4.39453125
7,1746312984101.4688,-118.1640625,-19.04296875,-55.6640625,-44.43359375
8,1746312984105.375,-127.9296875,-29.78515625,-46.38671875,-69.82421875
9,1746312984109.2812,-89.35546875,-11.71875,-39.55078125,-57.6171875
10,1746312984113.1875,-113.76953125,-22.4609375,-65.91796875,-63.96484375
11,1746312984117.0938,-198.73046875,-25.390625,-33.69140625,-73.73046875
0,1746312984121,-216.796875,6.8359375,-4.8828125,-85.9375
1,1746312984124.9062,-205.56640625,-28.80859375,-80.56640625,-89.35546875
2,1746312984128.8125,-206.54296875,-50.78125,-76.66015625,-90.33203125
3,1746312984132.7188,-194.3359375,1.46484375,-14.6484375,-88.8671875
4,1746312984136.625,-152.34375,14.16015625,-17.08984375,-69.3359375
5,1746312984140.5312,-139.16015625,-16.11328125,-23.92578125,-60.546875
6,1746312984144.4375,-128.90625,-26.3671875,-31.73828125,-40.0390625
7,1746312984148.3438,-106.4453125,-48.33984375,-64.94140625,-23.4375
8,1746312984152.25,-100.5859375,-37.109375,-44.921875,-60.546875
9,1746312984156.1562,-76.66015625,9.765625,-7.32421875,-44.43359375
10,1746312984160.0625,-62.5,-8.30078125,-35.64453125,-36.1328125
11,1746312984163.9688,-60.05859375,-25.87890625,-43.45703125,-58.10546875
0,1746312984167.875,-41.015625,-14.16015625,-34.66796875,-25.390625
1,1746312984171.7812,-26.85546875,-45.41015625,-24.4140625,16.11328125
2,1746312984175.6875,-28.80859375,-41.50390625,-28.80859375,-13.18359375
3,1746312984179.5938,-36.62109375,-14.16015625,-49.31640625,-47.8515625
4,1746312984183.5,-50.78125,-29.296875,-42.48046875,-33.203125
5,1746312984187.4062,-45.8984375,-42.48046875,-22.4609375,-36.1328125
6,1746312984191.3125,-42.96875,-32.71484375,-19.04296875,-44.921875
7,1746312984195.2188,-64.453125,-20.5078125,-55.17578125,-47.8515625
8,1746312984199.125,-72.265625,-22.4609375,-64.453125,-71.2890625
9,1746312984203.0312,-54.6875,-44.921875,-39.55078125,-63.96484375
10,1746312984206.9375,-22.94921875,-60.546875,-29.78515625,-23.4375
11,1746312984210.8438,-24.90234375,-47.36328125,-27.83203125,-32.2265625
0,1746312984214.75,-48.33984375,-10.25390625,-27.34375,-64.453125
1,1746312984218.6562,-36.62109375,-12.20703125,-33.203125,-59.08203125
2,1746312984222.5625,-8.7890625,-38.0859375,-58.10546875,-24.4140625
3,1746312984226.4688,-12.6953125,-23.92578125,-24.90234375,11.71875
4,1746312984230.375,-28.3203125,1.46484375,0.48828125,-4.39453125
5,1746312984234.2812,-33.69140625,-19.04296875,-21.484375,-32.71484375
6,1746312984238.1875,-15.13671875,-78.125,-28.80859375,-17.08984375
7,1746312984242.0938,-20.01953125,-28.3203125,-45.41015625,1.46484375
8,1746312984246,-30.76171875,2.9296875,-48.33984375,10.7421875
9,1746312984249.9062,-21.484375,-42.96875,-20.5078125,-8.30078125
10,1746312984253.8125,-33.69140625,-36.1328125,-29.78515625,-32.2265625
11,1746312984257.7188,-37.59765625,-35.15625,-30.76171875,-37.109375
0,1746312984261.625,-36.1328125,-30.76171875,-14.6484375,-68.359375
1,1746312984265.5312,-28.80859375,-27.83203125,-14.6484375,-85.44921875
2,1746312984269.4375,-40.52734375,-42.48046875,-22.4609375,-52.734375
3,1746312984273.3438,-62.01171875,-40.52734375,-46.38671875,-41.9921875
4,1746312984277.25,-51.26953125,-0.48828125,-23.92578125,-19.53125
5,1746312984281.1562,-37.109375,-41.50390625,-35.15625,-16.6015625
6,1746312984285.0625,-48.828125,-92.7734375,-56.640625,-15.625
7,1746312984288.9688,-44.43359375,-38.57421875,-19.53125,-17.578125
8,1746312984292.875,-26.3671875,-17.578125,-10.7421875,-24.4140625
9,1746312984296.7812,-22.4609375,-42.48046875,-24.4140625,-7.32421875
10,1746312984300.6875,-29.296875,-33.203125,-26.85546875,-17.578125
11,1746312984304.5938,-33.203125,-0.48828125,-5.859375,-40.0390625
0,1746312984308.5,-32.2265625,3.41796875,-11.23046875,-38.57421875
1,1746312984312.4062,-19.04296875,6.8359375,-9.765625,-13.671875
2,1746312984316.3125,-2.9296875,-34.66796875,-37.59765625,-22.94921875
3,1746312984320.2188,-1.953125,-59.5703125,-61.5234375,-34.66796875
4,1746312984324.125,-23.92578125,-41.9921875,-42.48046875,-38.57421875
5,1746312984328.0312,-25.87890625,-60.546875,-61.03515625,-5.37109375
6,1746312984331.9375,-20.01953125,-36.62109375,-26.85546875,-2.44140625
7,1746312984335.8438,-41.9921875,6.8359375,20.5078125,-58.59375
8,1746312984339.75,-49.31640625,-17.08984375,-2.44140625,-71.2890625
9,1746312984343.6562,-34.66796875,-14.6484375,-23.4375,-39.55078125
10,1746312984347.5625,-27.83203125,1.953125,-45.8984375,-14.16015625
11,1746312984351.4688,-25.390625,-37.109375,-49.31640625,-3.41796875
0,1746312984355.375,-22.4609375,-73.2421875,-39.0625,-3.41796875
1,1746312984359.2812,-24.4140625,-33.203125,-22.94921875,-47.36328125
2,1746312984363.1875,-40.52734375,-11.23046875,-39.55078125,-107.91015625
3,1746312984367.0938,-59.08203125,-28.80859375,-49.8046875,-91.30859375
4,1746312984371,-44.43359375,-59.5703125,-2.9296875,-44.43359375
5,1746312984374.9062,-28.3203125,-62.01171875,-8.7890625,-49.8046875
6,1746312984378.8125,-43.45703125,-20.99609375,-55.17578125,-52.24609375
7,1746312984382.7188,-41.015625,-7.32421875,-36.62109375,-33.69140625
8,1746312984386.625,-35.64453125,-29.296875,-40.0390625,-47.36328125
9,1746312984390.5312,-31.25,-61.03515625,-40.0390625,-26.3671875
10,1746312984394.4375,1.953125,-39.55078125,-22.94921875,22.4609375
11,1746312984398.3438,15.13671875,-35.15625,-40.52734375,11.23046875
0,1746312984402.25,-6.8359375,-36.1328125,-38.0859375,-20.01953125
1,1746312984406.1562,-20.5078125,-12.6953125,-37.109375,-22.4609375
2,1746312984410.0625,-26.85546875,-33.203125,-16.6015625,-28.3203125
3,1746312984413.9688,-28.3203125,-45.8984375,10.25390625,-31.73828125
4,1746312984417.875,-44.921875,-36.62109375,-1.953125,-38.57421875
5,1746312984421.7812,-51.26953125,-14.16015625,-44.43359375,-39.0625
6,1746312984425.6875,-34.66796875,-11.71875,-38.57421875,-14.6484375
7,1746312984429.5938,-33.69140625,-39.55078125,-39.55078125,3.41796875
8,1746312984433.5,-41.9921875,-21.484375,-40.0390625,-12.6953125
9,1746312984437.4062,-37.109375,-21.97265625,-23.4375,-12.6953125
10,1746312984441.3125,-23.92578125,-22.94921875,-27.83203125,-23.92578125
11,1746312984445.2188,-24.4140625,-31.25,-20.5078125,-30.2734375
0,1746312984449.125,-23.92578125,-49.31640625,-18.5546875,-17.578125
1,1746312984453.0312,-19.04296875,-41.015625,-21.97265625,-11.71875
2,1746312984456.9375,-26.85546875,-30.76171875,-31.25,-22.94921875
3,1746312984460.8438,-36.1328125,-11.23046875,-41.50390625,-19.04296875
4,1746312984464.75,-25.87890625,-9.765625,-39.0625,4.39453125
5,1746312984468.6562,-1.953125,-9.765625,-34.1796875,-7.32421875
6,1746312984472.5625,-21.97265625,-39.55078125,-13.671875,-28.80859375
7,1746312984476.4688,-36.62109375,-68.359375,-11.71875,-60.05859375
8,1746312984480.375,-14.6484375,-61.03515625,-52.24609375,-54.19921875
9,1746312984484.2812,-36.62109375,-58.10546875,-38.0859375,-9.27734375
10,1746312984488.1875,-62.5,-28.80859375,-0.48828125,22.94921875
11,1746312984492.0938,-47.8515625,-11.71875,-19.53125,-31.25
0,1746312984496,-126.953125,-29.78515625,-41.9921875,-65.91796875
1,1746312984499.9062,-225.5859375,-23.4375,-46.38671875,-37.59765625
2,1746312984503.8125,-200.68359375,-27.34375,-45.8984375,-20.5078125
3,1746312984507.7188,-113.76953125,-32.2265625,-34.1796875,1.46484375
4,1746312984511.625,-32.2265625,-7.32421875,-27.83203125,3.41796875
5,1746312984515.5312,-7.32421875,-20.5078125,-28.80859375,-29.78515625
6,1746312984519.4375,-12.20703125,-44.921875,-6.34765625,-54.6875
7,1746312984523.3438,-21.484375,-28.3203125,-11.71875,-42.48046875
8,1746312984527.25,-27.34375,-10.7421875,-54.6875,-34.1796875
9,1746312984531.1562,-19.53125,-23.92578125,-39.55078125,-56.640625
10,1746312984535.0625,-15.13671875,-54.6875,-26.3671875,-41.50390625
11,1746312984538.9688,2.44140625,-21.484375,-62.01171875,-5.37109375
0,1746312984542.875,3.90625,-18.5546875,-22.94921875,-21.484375
1,1746312984546.7812,-17.578125,-44.921875,9.765625,-61.5234375
2,1746312984550.6875,-16.11328125,-59.5703125,-13.671875,-49.8046875
3,1746312984554.5938,-15.13671875,-44.921875,-46.38671875,-39.0625
4,1746312984558.5,-22.4609375,-22.94921875,-46.38671875,-18.06640625
5,1746312984562.4062,-19.04296875,-3.90625,-35.64453125,-7.8125
6,1746312984566.3125,-22.94921875,-21.484375,-57.12890625,-20.5078125
7,1746312984570.2188,-26.85546875,-76.66015625,-23.4375,-22.4609375
8,1746312984574.125,-10.7421875,-54.19921875,-2.9296875,-19.04296875
9,1746312984578.0312,-4.39453125,-4.8828125,-21.97265625,-13.18359375
10,1746312984581.9375,-18.5546875,-15.625,-25.390625,-25.87890625
11,1746312984585.8438,-27.34375,-20.99609375,-37.109375,-42.48046875
0,1746312984589.75,-28.3203125,-26.3671875,-54.19921875,-62.98828125
1,1746312984593.6562,-14.16015625,-31.25,-27.34375,-48.33984375
2,1746312984597.5625,-19.04296875,-29.78515625,-27.34375,-40.52734375
3,1746312984601.4688,-31.25,-17.08984375,-31.25,-25.87890625
4,1746312984605.375,-19.04296875,-19.53125,-36.1328125,2.9296875
5,1746312984609.2812,-16.6015625,-12.6953125,-45.8984375,-6.34765625
6,1746312984613.1875,-14.16015625,-35.15625,-41.50390625,-17.08984375
7,1746312984617.0938,-30.2734375,-83.984375,-40.52734375,-13.671875
8,1746312984621,-45.8984375,-62.5,-18.06640625,-17.08984375
9,1746312984624.9062,-43.9453125,-22.4609375,-20.99609375,-56.15234375
10,1746312984628.8125,-54.19921875,-12.6953125,-24.4140625,-74.21875
11,1746312984632.7188,-61.5234375,-10.25390625,-31.73828125,-62.98828125
0,1746312984636.625,-46.38671875,-10.7421875,-36.62109375,-54.6875
1,1746312984640.5312,-19.53125,-37.59765625,-19.53125,-25.87890625
2,1746312984644.4375,-20.5078125,-28.80859375,-17.08984375,-32.2265625
3,1746312984648.3438,-17.08984375,-4.39453125,-30.76171875,-51.7578125
4,1746312984652.25,-22.94921875,-32.71484375,-72.265625,-53.22265625
5,1746312984656.1562,-23.92578125,-50.78125,-66.40625,-16.11328125
6,1746312984660.0625,-6.34765625,-61.5234375,-9.27734375,13.18359375
7,1746312984663.9688,-36.1328125,-58.59375,-5.859375,-52.24609375
8,1746312984667.875,-50.29296875,-16.6015625,-33.69140625,-73.2421875
9,1746312984671.7812,-33.203125,-19.04296875,-18.5546875,-48.828125
10,1746312984675.6875,-38.57421875,-41.50390625,-30.2734375,-59.5703125
11,1746312984679.5938,-33.69140625,-41.50390625,-22.94921875,-62.01171875
0,1746312984683.5,-19.53125,-27.34375,-26.85546875,-30.76171875
1,1746312984687.4062,-20.5078125,-3.90625,-44.43359375,-16.6015625
2,1746312984691.3125,-32.2265625,-14.6484375,-41.50390625,-56.15234375
3,1746312984695.2188,-33.69140625,-32.2265625,-31.73828125,-45.8984375
4,1746312984699.125,-27.34375,-32.71484375,-24.4140625,-12.6953125
5,1746312984703.0312,-41.015625,-34.66796875,-31.25,-34.1796875
6,1746312984706.9375,-54.19921875,-38.57421875,-20.5078125,-61.03515625
7,1746312984710.8438,-56.15234375,-34.66796875,-8.7890625,-65.4296875
8,1746312984714.75,-44.921875,-53.7109375,-20.01953125,-57.12890625
9,1746312984718.6562,-21.97265625,-58.59375,-36.62109375,-37.109375
10,1746312984722.5625,-28.3203125,-37.59765625,-32.2265625,-34.66796875
11,1746312984726.4688,-42.96875,-39.0625,-31.73828125,-38.0859375
0,1746312984730.375,-43.45703125,-71.77734375,-54.6875,-30.76171875
1,1746312984734.2812,-54.19921875,-83.0078125,-45.8984375,-43.9453125
2,1746312984738.1875,-54.6875,-40.0390625,-27.83203125,-62.5
3,1746312984742.0938,-36.1328125,-13.671875,-13.671875,-52.734375
4,1746312984746,-34.66796875,-45.8984375,-16.11328125,-55.17578125
5,1746312984749.9062,-40.0390625,-71.2890625,-30.76171875,-53.7109375
6,1746312984753.8125,-28.80859375,-43.9453125,-14.16015625,-38.0859375
7,1746312984757.7188,-25.87890625,-30.76171875,-19.53125,-20.01953125
8,1746312984761.625,-27.83203125,-42.48046875,-15.625,-13.18359375
9,1746312984765.5312,-31.73828125,-49.8046875,-29.78515625,-41.015625
10,1746312984769.4375,-48.828125,-52.24609375,-63.4765625,-68.359375
11,1746312984773.3438,-58.59375,-30.2734375,-33.203125,-75.68359375
0,1746312984777.25,-56.640625,-16.11328125,-44.921875,-65.91796875
1,1746312984781.1562,-52.24609375,-60.05859375,-58.10546875,-62.98828125
2,1746312984785.0625,-44.921875,-37.109375,-19.04296875,-71.2890625
3,1746312984788.9688,-34.66796875,-33.69140625,-6.8359375,-64.94140625
4,1746312984792.875,-20.5078125,-52.734375,2.44140625,-49.8046875
5,1746312984796.7812,-22.94921875,-12.6953125,-17.08984375,-67.3828125
6,1746312984800.6875,-31.73828125,-2.44140625,-42.96875,-76.171875
7,1746312984804.5938,-9.765625,-5.37109375,-51.26953125,-34.66796875
8,1746312984808.5,0.48828125,-21.97265625,-59.08203125,-22.4609375
9,1746312984812.4062,-28.3203125,-44.921875,-48.33984375,-64.453125
10,1746312984816.3125,-53.22265625,-42.96875,-31.25,-83.0078125
11,1746312984820.2188,-44.43359375,-62.01171875,-13.18359375,-26.3671875
0,1746312984824.125,-23.4375,-55.17578125,-7.32421875,-7.8125
1,1746312984828.0312,-26.85546875,-28.3203125,-21.484375,-32.71484375
2,1746312984831.9375,-36.1328125,-37.109375,-51.7578125,-20.01953125
3,1746312984835.8438,-29.296875,-29.78515625,-48.828125,-31.73828125
4,1746312984839.75,-24.4140625,-7.32421875,-14.6484375,-61.5234375
5,1746312984843.6562,-44.43359375,-21.97265625,-11.23046875,-85.9375
6,1746312984847.5625,-68.359375,-31.25,-14.16015625,-89.84375
7,1746312984851.4688,-66.89453125,-27.34375,-26.85546875,-67.3828125
8,1746312984855.375,-52.24609375,-27.83203125,-61.03515625,-43.45703125
9,1746312984859.2812,-44.43359375,-40.0390625,-70.80078125,-35.15625
10,1746312984863.1875,-44.921875,-59.08203125,-56.15234375,-40.52734375
11,1746312984867.0938,-41.015625,-33.203125,-16.11328125,-48.33984375
0,1746312984871,-39.0625,-22.94921875,10.7421875,-70.3125
1,1746312984874.9062,-30.76171875,-38.57421875,14.16015625,-48.828125
2,1746312984878.8125,-26.3671875,-26.85546875,-5.37109375,-8.7890625
3,1746312984882.7188,-40.0390625,-24.4140625,-40.52734375,-44.43359375
4,1746312984886.625,-57.12890625,-19.53125,-41.50390625,-64.94140625
5,1746312984890.5312,-65.91796875,-30.76171875,-43.9453125,-54.19921875
6,1746312984894.4375,-56.640625,-30.2734375,-57.12890625,-59.5703125
7,1746312984898.3438,-49.31640625,-21.97265625,-52.734375,-70.3125
8,1746312984902.25,-41.50390625,-30.76171875,-29.296875,-78.61328125
9,1746312984906.1562,-29.296875,-56.640625,-39.55078125,-44.921875
10,1746312984910.0625,-30.76171875,-60.546875,-54.6875,-36.1328125
11,1746312984913.9688,-32.2265625,-54.6875,-20.5078125,-60.546875
0,1746312984917.875,-39.0625,-51.7578125,5.37109375,-79.1015625
1,1746312984921.7812,-37.109375,-29.296875,-19.04296875,-77.63671875
2,1746312984925.6875,-32.2265625,-15.625,-57.6171875,-46.875
3,1746312984929.5938,-52.24609375,-8.30078125,-44.43359375,-57.12890625
4,1746312984933.5,-53.7109375,-13.671875,-37.109375,-38.57421875
5,1746312984937.4062,-20.01953125,-26.3671875,-47.36328125,-5.37109375
6,1746312984941.3125,-8.7890625,-52.734375,4.39453125,-29.78515625
7,1746312984945.2188,-34.66796875,-38.57421875,3.90625,-57.12890625
8,1746312984949.125,-44.43359375,-16.11328125,-37.59765625,-51.26953125
9,1746312984953.0312,-36.62109375,-40.52734375,-48.828125,-31.25
10,1746312984956.9375,-41.015625,-26.85546875,-47.8515625,-45.8984375
11,1746312984960.8438,-51.26953125,-31.73828125,-23.4375,-38.0859375
0,1746312984964.75,-52.24609375,-72.265625,-9.765625,-33.69140625
1,1746312984968.6562,-47.36328125,-20.99609375,-27.83203125,-54.6875
2,1746312984972.5625,-33.69140625,25.390625,-28.3203125,-37.109375
3,1746312984976.4688,-21.97265625,-20.99609375,-45.41015625,-20.01953125
4,1746312984980.375,-24.90234375,-40.0390625,-59.08203125,-24.90234375
5,1746312984984.2812,-28.3203125,-60.546875,-16.11328125,-34.66796875
6,1746312984988.1875,-21.484375,-69.82421875,-12.20703125,-52.24609375
7,1746312984992.0938,-29.78515625,-44.921875,-42.96875,-58.10546875
8,1746312984996,-37.109375,-14.6484375,-53.7109375,-53.7109375
9,1746312984999.9062,-17.578125,-10.7421875,-62.5,-30.76171875
10,1746312985003.8125,-7.8125,-39.0625,-35.15625,0.48828125
11,1746312985007.7188,-32.71484375,-55.17578125,-8.7890625,-30.76171875
0,1746312985011.625,-49.8046875,-37.109375,-30.2734375,-104.00390625
1,1746312985015.5312,-33.203125,-31.73828125,-24.90234375,-102.05078125
2,1746312985019.4375,-32.2265625,-20.01953125,-25.87890625,-55.6640625
3,1746312985023.3438,-33.69140625,-24.4140625,-20.01953125,-16.6015625
4,1746312985027.25,-11.23046875,-58.59375,-24.90234375,0.48828125
5,1746312985031.1562,-14.16015625,-50.78125,-43.45703125,-18.06640625
6,1746312985035.0625,-4.8828125,-34.1796875,-45.8984375,-50.29296875
7,1746312985038.9688,-14.6484375,-15.625,-45.8984375,-59.08203125
8,1746312985042.875,-32.71484375,-0.48828125,-34.66796875,-28.80859375
9,1746312985046.7812,-20.99609375,-55.6640625,-13.18359375,4.39453125
10,1746312985050.6875,-33.69140625,-101.5625,-17.08984375,-33.203125
11,1746312985054.5938,-38.0859375,-40.0390625,-35.64453125,-58.10546875
0,1746312985058.5,-26.3671875,20.99609375,-23.92578125,-27.34375
1,1746312985062.4062,-33.203125,22.4609375,-35.15625,-70.3125
2,1746312985066.3125,-34.1796875,7.32421875,-55.6640625,-73.2421875
3,1746312985070.2188,-11.23046875,-19.04296875,-54.6875,-20.5078125
4,1746312985074.125,10.25390625,-20.01953125,-32.71484375,18.06640625
5,1746312985078.0312,18.5546875,-44.43359375,-1.953125,8.7890625
6,1746312985081.9375,-18.06640625,-63.96484375,-0.48828125,-56.15234375
7,1746312985085.8438,-44.43359375,-50.29296875,-22.94921875,-78.61328125
8,1746312985089.75,-35.15625,-40.0390625,-22.94921875,-34.66796875
9,1746312985093.6562,-24.90234375,-31.25,-27.34375,6.8359375
10,1746312985097.5625,-27.34375,-25.87890625,-22.94921875,-29.296875
11,1746312985101.4688,-34.66796875,-20.5078125,-37.109375,-41.015625
0,1746312985105.375,-27.83203125,-24.90234375,-50.78125,-28.80859375
1,1746312985109.2812,-20.5078125,-17.08984375,-34.66796875,-7.8125
2,1746312985113.1875,-15.13671875,-16.11328125,-25.87890625,-10.25390625
3,1746312985117.0938,-1.46484375,-54.19921875,7.32421875,-22.4609375
4,1746312985121,-1.46484375,-64.94140625,-18.06640625,-27.83203125
5,1746312985124.9062,-24.4140625,-72.265625,-49.8046875,-51.7578125
6,1746312985128.8125,-31.73828125,-48.828125,-25.87890625,-44.921875
7,1746312985132.7188,-29.296875,0.9765625,-17.08984375,-38.0859375
8,1746312985136.625,-25.390625,-26.3671875,-19.53125,-32.71484375
9,1746312985140.5312,-22.4609375,-56.640625,-17.578125,-3.41796875
10,1746312985144.4375,-21.97265625,-57.12890625,-23.92578125,-13.671875
11,1746312985148.3438,-20.01953125,-11.23046875,-19.04296875,-43.45703125
0,1746312985152.25,-39.0625,-9.27734375,-28.80859375,-51.26953125
1,1746312985156.1562,-49.8046875,-31.25,-61.03515625,-3.90625
2,1746312985160.0625,-32.2265625,-29.296875,-43.9453125,-1.953125
3,1746312985163.9688,-33.203125,-45.41015625,-33.203125,-34.1796875
4,1746312985167.875,-39.0625,-48.828125,-33.69140625,-24.90234375
5,1746312985171.7812,-46.875,-32.71484375,4.39453125,-42.48046875
6,1746312985175.6875,-47.8515625,-18.06640625,18.5546875,-37.59765625
7,1746312985179.5938,-50.78125,-42.48046875,-1.46484375,-32.2265625
8,1746312985183.5,-72.265625,-41.50390625,-48.828125,-9.765625
9,1746312985187.4062,-91.796875,-58.59375,-71.77734375,-25.390625
10,1746312985191.3125,-92.7734375,-38.57421875,-82.03125,-61.5234375
11,1746312985195.2188,-102.05078125,-0.9765625,-79.1015625,-25.87890625
0,1746312985199.125,-114.74609375,-25.87890625,-15.13671875,-19.04296875
1,1746312985203.0312,-112.3046875,-47.8515625,30.76171875,-51.7578125
2,1746312985206.9375,-115.234375,-43.9453125,34.1796875,-41.9921875
3,1746312985210.8438,-119.62890625,-43.9453125,4.39453125,-15.13671875
4,1746312985214.75,-128.90625,-24.90234375,-40.0390625,-34.1796875
5,1746312985218.6562,-121.09375,-12.6953125,-47.36328125,-78.125
6,1746312985222.5625,-116.69921875,-60.546875,-69.82421875,-67.3828125
7,1746312985226.4688,-122.0703125,-67.87109375,-62.5,-31.25
8,1746312985230.375,-118.1640625,-39.0625,-11.71875,-37.109375
9,1746312985234.2812,-127.9296875,-23.4375,-3.41796875,-74.21875
10,1746312985238.1875,-125,-18.06640625,-25.87890625,-53.22265625
11,1746312985242.0938,-123.53515625,-31.73828125,-31.73828125,-13.671875
0,1746312985246,-134.27734375,-21.97265625,-20.99609375,-22.94921875
1,1746312985249.9062,-123.046875,-10.25390625,-28.80859375,-23.92578125
2,1746312985253.8125,-107.421875,-37.59765625,-34.1796875,-15.13671875
3,1746312985257.7188,-85.9375,-38.57421875,-36.1328125,25.390625
4,1746312985261.625,-85.9375,-31.73828125,-58.10546875,31.25
5,1746312985265.5312,-116.69921875,-28.3203125,-46.38671875,-32.2265625
6,1746312985269.4375,-106.4453125,-24.4140625,-25.87890625,-44.921875
7,1746312985273.3438,-90.8203125,-61.5234375,-46.875,-28.3203125
8,1746312985277.25,-89.84375,-75.68359375,-19.53125,-30.2734375
9,1746312985281.1562,-85.9375,-56.15234375,22.4609375,-31.25
10,1746312985285.0625,-90.8203125,-48.828125,-32.71484375,-39.55078125
11,1746312985288.9688,-88.8671875,-20.99609375,-57.12890625,-26.85546875
0,1746312985292.875,-76.66015625,-17.578125,-40.0390625,4.39453125
1,1746312985296.7812,-101.5625,-27.34375,-52.24609375,-49.31640625
2,1746312985300.6875,-113.76953125,-19.04296875,-41.9921875,-52.734375
3,1746312985304.5938,-86.42578125,-23.92578125,-25.87890625,-1.953125
4,1746312985308.5,-82.51953125,-50.29296875,-33.203125,-6.34765625
5,1746312985312.4062,-69.82421875,-47.8515625,-25.87890625,5.37109375
6,1746312985316.3125,-46.875,-54.6875,10.25390625,-1.46484375
7,1746312985320.2188,-48.828125,-85.44921875,-16.11328125,-53.7109375
8,1746312985324.125,-61.5234375,-55.17578125,-59.08203125,-56.15234375
9,1746312985328.0312,-87.890625,-29.296875,-60.05859375,-42.48046875
10,1746312985331.9375,-81.54296875,-18.5546875,-68.84765625,-38.0859375
11,1746312985335.8438,-54.6875,28.3203125,-29.78515625,-39.0625
0,1746312985339.75,-65.4296875,26.3671875,4.39453125,-50.78125
1,1746312985343.6562,-73.73046875,-24.4140625,-32.2265625,-68.84765625
2,1746312985347.5625,-17.08984375,-55.17578125,-53.22265625,-67.3828125
3,1746312985351.4688,58.10546875,-46.875,-34.1796875,-38.57421875
4,1746312985355.375,97.65625,-20.5078125,-42.96875,-10.7421875
5,1746312985359.2812,99.12109375,-39.0625,-36.62109375,-47.36328125
6,1746312985363.1875,75.68359375,-75.68359375,-15.625,-52.734375
7,1746312985367.0938,75.1953125,-80.56640625,-30.76171875,4.39453125
8,1746312985371,94.7265625,-50.78125,-36.1328125,15.625
9,1746312985374.9062,71.77734375,-6.34765625,-38.0859375,-32.2265625
10,1746312985378.8125,26.85546875,26.3671875,-23.92578125,-88.37890625
11,1746312985382.7188,20.99609375,9.765625,4.8828125,-90.8203125
0,1746312985386.625,40.0390625,-0.48828125,-11.23046875,-58.10546875
1,1746312985390.5312,37.109375,-6.34765625,-55.6640625,-28.80859375
2,1746312985394.4375,48.828125,-19.04296875,-67.3828125,-0.9765625
3,1746312985398.3438,49.8046875,-50.78125,-43.45703125,-33.203125
4,1746312985402.25,19.53125,-55.17578125,-9.27734375,-72.265625
5,1746312985406.1562,5.859375,-45.41015625,1.953125,-62.98828125
6,1746312985410.0625,-2.9296875,-57.6171875,-3.41796875,-41.9921875
7,1746312985413.9688,-20.01953125,-48.828125,-37.59765625,-36.62109375
8,1746312985417.875,-18.06640625,-20.5078125,-62.98828125,-40.0390625
9,1746312985421.7812,-5.37109375,-5.859375,-28.80859375,-33.203125
10,1746312985425.6875,-0.9765625,-4.8828125,-39.55078125,-29.78515625
11,1746312985429.5938,1.953125,-9.27734375,-49.8046875,-20.01953125
0,1746312985433.5,-17.578125,-48.828125,1.46484375,-29.296875
1,1746312985437.4062,-31.73828125,-62.98828125,14.6484375,-27.34375
2,1746312985441.3125,-24.90234375,-60.05859375,-25.87890625,-30.76171875
3,1746312985445.2188,-15.13671875,-62.5,-38.0859375,-40.52734375
4,1746312985449.125,-27.34375,-40.52734375,-23.4375,-30.2734375
5,1746312985453.0312,-35.15625,-18.06640625,-55.6640625,-31.25
6,1746312985456.9375,-22.4609375,-22.4609375,-70.80078125,-19.04296875
7,1746312985460.8438,-16.6015625,-49.31640625,-44.43359375,-11.71875
8,1746312985464.75,-21.97265625,-40.52734375,-64.94140625,-19.53125
9,1746312985468.6562,-14.16015625,-20.01953125,-40.52734375,14.6484375
10,1746312985472.5625,7.8125,-22.94921875,24.4140625,16.11328125
11,1746312985476.4688,-15.625,-72.75390625,13.18359375,-56.640625
0,1746312985480.375,-51.7578125,-93.26171875,-45.8984375,-58.10546875
1,1746312985484.2812,-50.29296875,-33.69140625,-57.6171875,-39.55078125
2,1746312985488.1875,-33.203125,-19.04296875,-41.015625,-41.9921875
3,1746312985492.0938,-25.390625,-13.18359375,-15.13671875,-21.484375
4,1746312985496,-39.0625,-3.41796875,-26.3671875,-32.2265625
5,1746312985499.9062,-31.25,-9.765625,-49.8046875,-25.87890625
6,1746312985503.8125,-13.18359375,-38.57421875,-31.25,-1.953125
7,1746312985507.7188,-4.8828125,-61.5234375,-5.37109375,7.8125
8,1746312985511.625,-1.953125,-19.53125,-21.484375,-23.4375
9,1746312985515.5312,-25.390625,-13.671875,-30.76171875,-52.24609375
10,1746312985519.4375,-38.0859375,-61.03515625,-21.97265625,-41.9921875
11,1746312985523.3438,-44.921875,-74.70703125,-12.6953125,-50.29296875
0,1746312985527.25,-47.8515625,-45.41015625,-22.94921875,-45.41015625
1,1746312985531.1562,-41.9921875,-10.25390625,-52.734375,-10.25390625
2,1746312985535.0625,-34.66796875,-18.5546875,-44.43359375,-20.5078125
3,1746312985538.9688,-22.4609375,-35.15625,-34.66796875,-22.4609375
4,1746312985542.875,-19.04296875,-21.97265625,-32.71484375,0
5,1746312985546.7812,-28.3203125,-30.76171875,-20.5078125,-27.83203125
6,1746312985550.6875,-39.55078125,-33.203125,-29.78515625,-48.828125
7,1746312985554.5938,-38.0859375,-17.08984375,-55.17578125,-41.50390625
8,1746312985558.5,-30.76171875,-21.484375,-50.29296875,-13.671875
9,1746312985562.4062,-34.66796875,-50.78125,-42.96875,-6.34765625
10,1746312985566.3125,-33.69140625,-40.52734375,-28.80859375,-54.6875
11,1746312985570.2188,-18.5546875,-45.8984375,-11.71875,-19.53125
0,1746312985574.125,-18.5546875,-48.828125,-17.08984375,33.69140625
1,1746312985578.0312,-22.4609375,-8.7890625,-21.484375,-0.48828125
2,1746312985581.9375,-28.80859375,-32.2265625,-16.11328125,-21.97265625
3,1746312985585.8438,-20.99609375,-38.0859375,-13.671875,-37.109375
4,1746312985589.75,-18.06640625,-15.13671875,-34.1796875,-54.19921875
5,1746312985593.6562,-35.64453125,-33.203125,-33.203125,-48.828125
6,1746312985597.5625,-37.59765625,-42.96875,-5.37109375,-38.0859375
7,1746312985601.4688,-17.08984375,-33.203125,-18.06640625,-15.13671875
8,1746312985605.375,-7.8125,-7.8125,-55.17578125,1.953125
9,1746312985609.2812,-15.625,-0.9765625,-41.50390625,10.7421875
10,1746312985613.1875,-10.7421875,-12.20703125,-30.2734375,10.25390625
11,1746312985617.0938,-22.94921875,-15.625,-39.55078125,-16.11328125
0,1746312985621,-20.5078125,-31.25,-28.80859375,-14.16015625
1,1746312985624.9062,-10.25390625,-32.71484375,-11.23046875,-7.8125
2,1746312985628.8125,0.48828125,-19.53125,-2.9296875,-23.4375
3,1746312985632.7188,1.953125,-32.71484375,-9.765625,-26.85546875
4,1746312985636.625,-40.52734375,-46.38671875,-25.390625,-28.80859375
5,1746312985640.5312,-45.8984375,-26.3671875,-36.62109375,-21.97265625
6,1746312985644.4375,-40.52734375,-25.87890625,-40.0390625,-36.1328125
7,1746312985648.3438,-48.828125,-46.875,-51.7578125,-40.52734375
8,1746312985652.25,-23.92578125,-53.7109375,-48.33984375,2.9296875
9,1746312985656.1562,-14.16015625,-68.84765625,-18.06640625,19.53125
10,1746312985660.0625,-33.69140625,-54.19921875,-32.2265625,-22.94921875
11,1746312985663.9688,-33.203125,-24.4140625,-37.109375,-45.8984375
0,1746312985667.875,-31.73828125,-33.69140625,-25.87890625,-25.390625
1,1746312985671.7812,-18.5546875,-22.4609375,-5.37109375,-9.27734375
2,1746312985675.6875,-15.625,-29.78515625,1.46484375,-12.6953125
3,1746312985679.5938,-28.80859375,-47.36328125,-57.6171875,-15.13671875
4,1746312985683.5,-25.390625,-27.83203125,-57.12890625,-1.46484375
5,1746312985687.4062,-9.27734375,-2.44140625,-27.34375,-1.953125
6,1746312985691.3125,-8.30078125,-30.2734375,-23.92578125,-12.6953125
7,1746312985695.2188,-28.80859375,-61.5234375,8.30078125,-14.6484375
8,1746312985699.125,-49.8046875,-56.640625,2.9296875,-33.203125
9,1746312985703.0312,-42.48046875,-34.66796875,-19.53125,-16.6015625
10,1746312985706.9375,-12.6953125,13.671875,-52.24609375,19.53125
11,1746312985710.8438,-15.13671875,-3.41796875,-62.5,-7.8125
0,1746312985714.75,-44.43359375,-48.828125,-28.80859375,-44.921875
1,1746312985718.6562,-50.78125,-60.546875,-34.1796875,-41.9921875
2,1746312985722.5625,-21.484375,-52.24609375,-61.03515625,-27.83203125
3,1746312985726.4688,-16.11328125,-31.73828125,-32.2265625,-34.66796875
4,1746312985730.375,-36.62109375,-22.4609375,-4.39453125,-63.4765625
5,1746312985734.2812,-27.34375,-38.0859375,-19.53125,-38.57421875
6,1746312985738.1875,-10.25390625,-56.15234375,-41.9921875,-28.3203125
7,1746312985742.0938,-19.53125,-39.0625,-28.80859375,-58.10546875
8,1746312985746,-27.34375,-3.41796875,-20.5078125,-40.52734375
9,1746312985749.9062,-12.20703125,-16.11328125,-37.109375,-15.625
10,1746312985753.8125,-6.34765625,-7.32421875,-26.3671875,-23.4375
11,1746312985757.7188,0.48828125,-0.48828125,-12.6953125,-19.04296875
0,1746312985761.625,-1.46484375,-44.43359375,-6.34765625,-23.4375
1,1746312985765.5312,-21.97265625,-45.41015625,-22.94921875,-50.78125
2,1746312985769.4375,-24.4140625,-37.59765625,-25.390625,-56.640625
3,1746312985773.3438,-4.39453125,-44.43359375,-14.6484375,-18.06640625
4,1746312985777.25,-8.30078125,-38.57421875,-30.76171875,-16.6015625
5,1746312985781.1562,-32.71484375,-67.87109375,-46.875,-41.9921875
6,1746312985785.0625,-36.62109375,-89.35546875,-38.57421875,-37.109375
7,1746312985788.9688,-37.59765625,-20.5078125,-42.96875,-33.203125
8,1746312985792.875,-40.0390625,18.5546875,-39.55078125,-30.2734375
9,1746312985796.7812,-41.50390625,-12.6953125,-21.484375,-33.69140625
10,1746312985800.6875,-49.31640625,-27.83203125,-29.296875,-43.45703125
11,1746312985804.5938,-51.7578125,-33.203125,-43.9453125,-41.9921875
0,1746312985808.5,-31.73828125,-38.0859375,-12.20703125,-1.953125
1,1746312985812.4062,-41.015625,-40.0390625,-15.13671875,-1.953125
2,1746312985816.3125,-80.56640625,-46.38671875,-70.80078125,-84.9609375
3,1746312985820.2188,-60.05859375,-44.43359375,-55.6640625,-66.40625
4,1746312985824.125,-34.1796875,-64.94140625,-26.3671875,-16.6015625
5,1746312985828.0312,-42.96875,-62.5,-12.20703125,-35.64453125
6,1746312985831.9375,-39.0625,-31.25,11.71875,-48.33984375
7,1746312985835.8438,-32.2265625,-31.73828125,-26.85546875,-39.0625
8,1746312985839.75,-29.78515625,-25.87890625,-79.1015625,-8.7890625
9,1746312985843.6562,-34.66796875,-16.11328125,-49.8046875,10.7421875
10,1746312985847.5625,-42.96875,-33.203125,-2.9296875,-8.7890625
11,1746312985851.4688,-29.78515625,-20.01953125,-13.671875,-23.4375
0,1746312985855.375,-6.34765625,-17.08984375,-31.25,-0.48828125
1,1746312985859.2812,-10.7421875,-37.59765625,-29.78515625,-3.90625
2,1746312985863.1875,-22.94921875,-10.25390625,-48.33984375,-28.80859375
3,1746312985867.0938,-41.50390625,-39.55078125,-31.73828125,-58.10546875
4,1746312985871,-54.19921875,-84.9609375,-7.32421875,-57.6171875
5,1746312985874.9062,-46.875,-47.8515625,-17.08984375,-14.16015625
6,1746312985878.8125,-62.5,-43.9453125,-39.55078125,-53.22265625
7,1746312985882.7188,-68.359375,-41.9921875,-52.24609375,-80.078125
8,1746312985886.625,-31.73828125,-14.6484375,-25.87890625,-29.78515625
9,1746312985890.5312,-11.23046875,-17.578125,-5.37109375,-34.66796875
10,1746312985894.4375,-14.16015625,-12.20703125,-20.01953125,-46.38671875
11,1746312985898.3438,-19.04296875,-9.765625,-19.04296875,-48.33984375
0,1746312985902.25,-18.5546875,-27.83203125,-18.5546875,-44.43359375
1,1746312985906.1562,-28.3203125,-54.19921875,-35.15625,-47.8515625
2,1746312985910.0625,-40.0390625,-40.52734375,-59.08203125,-45.41015625
3,1746312985913.9688,-33.69140625,-12.20703125,-57.6171875,-38.57421875
4,1746312985917.875,-13.671875,-31.73828125,-20.99609375,-18.06640625
5,1746312985921.7812,-16.6015625,-108.88671875,-15.625,-15.13671875
6,1746312985925.6875,-37.109375,-108.3984375,-15.625,-40.52734375
7,1746312985929.5938,-56.15234375,7.32421875,-27.83203125,-63.96484375
8,1746312985933.5,-58.59375,50.29296875,-71.2890625,-81.54296875
9,1746312985937.4062,-30.2734375,20.99609375,-35.64453125,-63.96484375
10,1746312985941.3125,-23.4375,-11.23046875,-5.859375,-53.22265625
11,1746312985945.2188,-55.6640625,-28.3203125,-35.64453125,-69.3359375
0,1746312985949.125,-66.89453125,-39.0625,-29.78515625,-80.56640625
1,1746312985953.0312,-40.0390625,-61.03515625,-38.57421875,-61.03515625
2,1746312985956.9375,-33.203125,-56.640625,-22.94921875,-33.203125
3,1746312985960.8438,-42.96875,-43.9453125,-8.30078125,-42.48046875
4,1746312985964.75,-52.734375,-49.8046875,-7.32421875,-57.12890625
5,1746312985968.6562,-43.9453125,-46.875,-7.32421875,-42.48046875
6,1746312985972.5625,-35.64453125,-55.17578125,-35.15625,-22.4609375
7,1746312985976.4688,-30.2734375,-64.453125,-26.3671875,-5.37109375
8,1746312985980.375,-36.62109375,-67.3828125,-10.7421875,-1.953125
9,1746312985984.2812,-59.5703125,-73.2421875,-35.15625,-7.32421875
10,1746312985988.1875,-56.640625,-57.12890625,-64.453125,-20.01953125
11,1746312985992.0938,-43.9453125,-62.01171875,-7.32421875,-30.2734375
0,1746312985996,-43.9453125,-61.5234375,-7.8125,-27.83203125
1,1746312985999.9062,-38.0859375,-43.45703125,-37.59765625,-14.6484375
2,1746312986003.8125,-49.31640625,-40.52734375,-11.23046875,-25.87890625
3,1746312986007.7188,-44.921875,-45.41015625,-12.20703125,-45.8984375
4,1746312986011.625,-33.69140625,-67.3828125,-12.20703125,-36.1328125
5,1746312986015.5312,-45.8984375,-38.0859375,-34.66796875,-46.875
6,1746312986019.4375,-57.6171875,6.8359375,-66.40625,-71.2890625
7,1746312986023.3438,-49.8046875,-11.71875,-33.69140625,-57.12890625
8,1746312986027.25,-35.64453125,-42.48046875,-39.0625,-43.45703125
9,1746312986031.1562,-51.7578125,-51.7578125,-68.84765625,-66.40625
10,1746312986035.0625,-48.828125,-40.0390625,-29.296875,-80.078125
11,1746312986038.9688,-22.4609375,-27.34375,8.7890625,-49.31640625
0,1746312986042.875,-23.92578125,-33.69140625,-20.5078125,-43.45703125
1,1746312986046.7812,-35.15625,-34.1796875,-30.76171875,-74.70703125
2,1746312986050.6875,-36.62109375,-33.69140625,-23.4375,-84.9609375
3,1746312986054.5938,-29.78515625,-29.78515625,-63.96484375,-77.63671875
4,1746312986058.5,-11.23046875,-25.87890625,-50.78125,-36.62109375
5,1746312986062.4062,-20.99609375,-47.36328125,-36.1328125,-35.64453125
6,1746312986066.3125,-44.921875,-40.0390625,-55.17578125,-50.78125
7,1746312986070.2188,-31.25,-21.97265625,-10.7421875,-12.6953125
8,1746312986074.125,-19.53125,-34.66796875,11.71875,-14.16015625
9,1746312986078.0312,-32.2265625,-38.0859375,-32.2265625,-44.43359375
10,1746312986081.9375,-37.109375,-29.78515625,-40.0390625,-66.40625
11,1746312986085.8438,-25.390625,-29.78515625,-39.0625,-56.15234375
0,1746312986089.75,-19.53125,-33.69140625,-40.52734375,-27.83203125
1,1746312986093.6562,-27.83203125,-13.18359375,-25.87890625,-44.921875
2,1746312986097.5625,-32.71484375,-15.13671875,-35.15625,-54.19921875
3,1746312986101.4688,-19.04296875,-54.19921875,-23.92578125,-24.90234375
4,1746312986105.375,-14.6484375,-72.265625,-9.27734375,-19.53125
5,1746312986109.2812,-25.390625,-22.94921875,-66.89453125,-33.203125
6,1746312986113.1875,-44.43359375,-4.8828125,-58.59375,-56.640625
7,1746312986117.0938,-65.91796875,-14.16015625,-11.23046875,-65.4296875
8,1746312986121,-64.94140625,-34.66796875,-25.87890625,-49.8046875
9,1746312986124.9062,-40.52734375,-58.10546875,-21.484375,-34.1796875
