index,unixTimestamp,TP9,AF7,AF8,TP10
0,1746313057621,-0.48828125,0,0,-0.48828125
1,1746313057624.9062,-0.48828125,0,0,-0.48828125
2,1746313057628.8125,0.9765625,-2.9296875,-2.44140625,3.41796875
3,1746313057632.7188,-2.44140625,4.39453125,3.90625,-8.7890625
4,1746313057636.625,11.23046875,-23.4375,-19.53125,43.45703125
5,1746313057640.5312,41.50390625,-69.3359375,-66.89453125,98.6328125
6,1746313057644.4375,40.0390625,-76.66015625,-52.734375,57.6171875
7,1746313057648.3438,18.06640625,-40.0390625,-40.0390625,-2.44140625
8,1746313057652.25,13.671875,30.76171875,-26.3671875,8.30078125
9,1746313057656.1562,14.16015625,-44.921875,1.46484375,51.7578125
10,1746313057660.0625,15.625,-104.00390625,-37.59765625,20.99609375
11,1746313057663.9688,32.71484375,1.46484375,-54.6875,5.859375
0,1746313057667.875,57.12890625,50.29296875,-24.90234375,83.984375
1,1746313057671.7812,59.5703125,14.16015625,-58.59375,102.5390625
2,1746313057675.6875,8.7890625,-19.04296875,-45.41015625,9.27734375
3,1746313057679.5938,-10.7421875,-46.38671875,11.23046875,0
4,1746313057683.5,14.16015625,-41.015625,12.6953125,20.01953125
5,1746313057687.4062,32.71484375,-6.8359375,2.9296875,-10.7421875
6,1746313057691.3125,-8.7890625,-6.8359375,-24.90234375,27.83203125
7,1746313057695.2188,-28.3203125,-37.59765625,-39.55078125,67.87109375
8,1746313057699.125,-17.08984375,-83.984375,-41.50390625,14.6484375
9,1746313057703.0312,-8.30078125,-26.85546875,-27.34375,9.765625
10,1746313057706.9375,-7.32421875,13.18359375,-27.83203125,33.203125
11,1746313057710.8438,-17.08984375,17.08984375,-23.4375,25.390625
0,1746313057714.75,2.9296875,22.94921875,-11.71875,21.97265625
1,1746313057718.6562,-20.01953125,29.296875,-45.8984375,13.18359375
2,1746313057722.5625,-33.69140625,46.875,-60.05859375,23.4375
3,1746313057726.4688,-9.27734375,-9.765625,-43.45703125,38.57421875
4,1746313057730.375,0,-38.0859375,-24.90234375,29.78515625
5,1746313057734.2812,21.484375,-29.296875,-18.06640625,34.1796875
6,1746313057738.1875,28.3203125,-13.671875,-19.53125,9.765625
7,1746313057742.0938,0.9765625,32.71484375,-17.08984375,-5.37109375
8,1746313057746,-16.6015625,3.90625,-9.27734375,31.73828125
9,1746313057749.9062,-16.6015625,-15.13671875,-18.5546875,40.0390625
10,1746313057753.8125,-33.69140625,18.5546875,-24.4140625,13.18359375
11,1746313057757.7188,-34.1796875,1.953125,-12.6953125,-15.625
0,1746313057761.625,-13.18359375,-26.85546875,-7.8125,-21.484375
1,1746313057765.5312,-10.7421875,-63.96484375,-27.83203125,-10.25390625
2,1746313057769.4375,-21.97265625,-40.52734375,-31.73828125,-1.953125
3,1746313057773.3438,-15.625,4.8828125,-19.53125,-8.7890625
4,1746313057777.25,-8.30078125,-1.953125,-30.2734375,-18.5546875
5,1746313057781.1562,6.34765625,-15.13671875,-25.87890625,4.39453125
6,1746313057785.0625,37.109375,-55.17578125,-10.7421875,34.1796875
7,1746313057788.9688,37.59765625,-26.3671875,-8.30078125,43.45703125
8,1746313057792.875,15.13671875,45.41015625,-11.23046875,32.2265625
9,1746313057796.7812,-3.41796875,-8.7890625,-50.29296875,-21.97265625
10,1746313057800.6875,0.48828125,-25.390625,-76.66015625,-16.6015625
11,1746313057804.5938,-32.2265625,37.59765625,-63.4765625,-8.7890625
0,1746313057808.5,-43.9453125,19.53125,-41.015625,-35.15625
1,1746313057812.4062,-27.83203125,-23.4375,-29.78515625,-38.0859375
2,1746313057816.3125,-31.25,-44.43359375,-8.30078125,-13.671875
3,1746313057820.2188,-29.296875,-58.59375,-7.32421875,-17.08984375
4,1746313057824.125,-26.3671875,-10.7421875,-12.6953125,-37.109375
5,1746313057828.0312,-16.11328125,11.71875,-2.9296875,-18.06640625
6,1746313057831.9375,-15.13671875,-29.296875,-15.625,-5.37109375
7,1746313057835.8438,-15.13671875,-97.16796875,-47.8515625,2.9296875
8,1746313057839.75,2.44140625,-124.0234375,-53.7109375,-7.32421875
9,1746313057843.6562,-7.32421875,0.9765625,-41.015625,-38.0859375
10,1746313057847.5625,11.23046875,68.359375,-25.87890625,-46.38671875
11,1746313057851.4688,21.97265625,9.27734375,-0.9765625,-7.8125
0,1746313057855.375,-6.8359375,-27.34375,-15.625,-8.7890625
1,1746313057859.2812,-28.3203125,-10.7421875,-32.71484375,-56.15234375
2,1746313057863.1875,-24.90234375,-31.73828125,-11.71875,-43.9453125
3,1746313057867.0938,-54.6875,-45.41015625,-41.50390625,-38.57421875
4,1746313057871,-104.00390625,-63.4765625,-80.078125,-34.66796875
5,1746313057874.9062,-63.4765625,-95.703125,-58.10546875,-11.71875
6,1746313057878.8125,-31.73828125,-74.21875,-45.41015625,-25.390625
7,1746313057882.7188,-54.19921875,-81.54296875,-50.29296875,-73.73046875
8,1746313057886.625,-39.55078125,-54.6875,-26.85546875,-56.640625
9,1746313057890.5312,-27.83203125,53.7109375,-20.01953125,-28.80859375
10,1746313057894.4375,-84.47265625,55.6640625,-25.87890625,-46.875
11,1746313057898.3438,-62.98828125,-29.296875,-14.16015625,-49.8046875
0,1746313057902.25,0,-73.73046875,-0.48828125,-24.90234375
1,1746313057906.1562,-9.27734375,-32.71484375,-12.6953125,-18.5546875
2,1746313057910.0625,-21.484375,-2.44140625,-32.2265625,-33.69140625
3,1746313057913.9688,1.953125,-43.45703125,-19.53125,-8.7890625
4,1746313057917.875,-9.765625,-57.6171875,-43.45703125,-11.71875
5,1746313057921.7812,-31.25,-21.97265625,-63.4765625,-64.453125
6,1746313057925.6875,-4.39453125,-31.73828125,-41.9921875,-29.296875
7,1746313057929.5938,9.765625,-39.55078125,-51.7578125,1.953125
8,1746313057933.5,9.27734375,-71.2890625,-36.62109375,-44.43359375
9,1746313057937.4062,-12.6953125,-20.01953125,-37.109375,-101.07421875
10,1746313057941.3125,-67.87109375,18.5546875,-34.1796875,-99.609375
11,1746313057945.2188,-32.71484375,-62.5,-11.23046875,-50.78125
0,1746313057949.125,-0.48828125,-40.0390625,-31.25,-41.50390625
1,1746313057953.0312,-16.6015625,-19.04296875,-41.9921875,-23.92578125
2,1746313057956.9375,-29.296875,-49.8046875,-42.48046875,-9.27734375
3,1746313057960.8438,-50.78125,-66.89453125,-33.203125,-33.203125
4,1746313057964.75,-39.0625,-59.5703125,-25.390625,-36.1328125
5,1746313057968.6562,-45.41015625,-52.734375,-39.0625,-21.97265625
6,1746313057972.5625,-41.50390625,-56.15234375,-35.64453125,-20.99609375
7,1746313057976.4688,-44.921875,-43.9453125,-31.73828125,-27.34375
8,1746313057980.375,-83.49609375,-27.83203125,-45.8984375,-47.8515625
9,1746313057984.2812,-58.59375,-37.109375,-39.0625,-45.41015625
10,1746313057988.1875,-19.53125,-58.10546875,-13.671875,-11.23046875
11,1746313057992.0938,-20.5078125,-41.015625,-26.3671875,-27.83203125
0,1746313057996,-25.87890625,-29.296875,-62.98828125,-47.8515625
1,1746313057999.9062,0.48828125,-55.17578125,-20.99609375,-7.8125
2,1746313058003.8125,14.6484375,-36.62109375,-15.625,9.765625
3,1746313058007.7188,-15.625,-21.484375,-68.84765625,-30.76171875
4,1746313058011.625,-52.734375,-5.37109375,-41.50390625,-62.98828125
5,1746313058015.5312,-67.87109375,16.11328125,-27.83203125,-75.1953125
6,1746313058019.4375,-45.41015625,-41.9921875,-22.4609375,-32.2265625
7,1746313058023.3438,-37.109375,-99.12109375,-12.6953125,-15.625
8,1746313058027.25,-37.109375,-44.921875,-14.6484375,-33.203125
9,1746313058031.1562,-60.546875,0.48828125,-34.66796875,-24.90234375
10,1746313058035.0625,-70.3125,2.9296875,-47.8515625,-5.37109375
11,1746313058038.9688,-30.2734375,-11.23046875,-39.0625,-35.15625
0,1746313058042.875,-26.3671875,-71.77734375,-54.6875,-36.1328125
1,1746313058046.7812,-41.9921875,-92.28515625,-47.8515625,18.5546875
2,1746313058050.6875,-62.01171875,-15.13671875,-28.80859375,-9.765625
3,1746313058054.5938,-83.0078125,24.4140625,-34.1796875,-49.31640625
4,1746313058058.5,-57.6171875,-0.48828125,-34.66796875,-24.4140625
5,1746313058062.4062,-68.359375,-17.578125,-32.71484375,-5.37109375
6,1746313058066.3125,-94.23828125,-28.80859375,-37.109375,-35.64453125
7,1746313058070.2188,-50.78125,-24.90234375,-30.76171875,5.859375
8,1746313058074.125,-26.85546875,-33.69140625,-21.97265625,42.96875
9,1746313058078.0312,-56.15234375,-79.1015625,-35.15625,26.85546875
10,1746313058081.9375,-51.7578125,-64.453125,-45.8984375,48.828125
11,1746313058085.8438,-25.390625,-11.23046875,-65.91796875,33.203125
0,1746313058089.75,-27.34375,4.39453125,-41.9921875,-28.80859375
1,1746313058093.6562,-53.7109375,-30.76171875,-27.34375,4.8828125
2,1746313058097.5625,-74.21875,-55.6640625,-49.31640625,51.7578125
3,1746313058101.4688,-48.828125,-26.3671875,-18.06640625,15.625
4,1746313058105.375,-34.1796875,13.671875,-13.671875,-7.32421875
5,1746313058109.2812,-29.78515625,28.3203125,-40.52734375,-29.296875
6,1746313058113.1875,-21.484375,-4.39453125,-38.57421875,-18.06640625
7,1746313058117.0938,-63.4765625,-14.6484375,-19.53125,17.08984375
8,1746313058121,-95.21484375,-27.83203125,-9.27734375,36.1328125
9,1746313058124.9062,-92.28515625,-62.98828125,-29.78515625,40.0390625
10,1746313058128.8125,-68.84765625,-41.50390625,-42.96875,25.87890625
11,1746313058132.7188,-52.734375,-3.41796875,-25.390625,26.3671875
0,1746313058136.625,-44.43359375,-8.30078125,-15.13671875,29.78515625
1,1746313058140.5312,-48.33984375,-26.85546875,-28.80859375,30.2734375
2,1746313058144.4375,-58.59375,-61.5234375,-44.921875,46.875
3,1746313058148.3438,-41.015625,-57.12890625,-36.62109375,54.19921875
4,1746313058152.25,-56.15234375,-29.296875,-38.57421875,18.06640625
5,1746313058156.1562,-53.7109375,7.8125,-27.34375,0.9765625
6,1746313058160.0625,-25.390625,-15.625,-27.34375,12.6953125
7,1746313058163.9688,2.9296875,-80.56640625,-57.12890625,9.765625
8,1746313058167.875,-14.16015625,-37.59765625,-47.36328125,6.8359375
9,1746313058171.7812,-42.96875,15.625,-36.1328125,-17.08984375
10,1746313058175.6875,-37.109375,5.37109375,-34.66796875,-20.99609375
11,1746313058179.5938,-18.5546875,-26.85546875,-28.80859375,-29.296875
0,1746313058183.5,-40.52734375,-48.33984375,-21.484375,-5.37109375
1,1746313058187.4062,-60.05859375,-43.9453125,-15.625,30.76171875
2,1746313058191.3125,-33.69140625,-15.625,-24.4140625,28.80859375
3,1746313058195.2188,-28.80859375,-6.34765625,-49.31640625,-15.625
4,1746313058199.125,-41.50390625,-35.15625,-56.640625,-19.53125
5,1746313058203.0312,-58.10546875,-50.29296875,-37.59765625,28.80859375
6,1746313058206.9375,-52.24609375,-47.36328125,-21.97265625,17.578125
7,1746313058210.8438,-58.10546875,-60.546875,-30.2734375,-28.80859375
8,1746313058214.75,-56.15234375,-66.40625,-46.38671875,-21.97265625
9,1746313058218.6562,-22.94921875,-91.796875,-26.3671875,15.13671875
10,1746313058222.5625,-4.8828125,-89.84375,-33.69140625,53.7109375
11,1746313058226.4688,-38.0859375,-41.50390625,-67.87109375,0.9765625
0,1746313058230.375,-46.875,0.48828125,-48.828125,-34.1796875
1,1746313058234.2812,-35.64453125,1.953125,-18.5546875,-2.9296875
2,1746313058238.1875,-65.91796875,-19.04296875,-14.16015625,13.671875
3,1746313058242.0938,-64.453125,-29.296875,-21.97265625,20.99609375
4,1746313058246,-36.62109375,-50.78125,-24.4140625,57.12890625
5,1746313058249.9062,-29.78515625,-51.7578125,-28.3203125,59.08203125
6,1746313058253.8125,-24.4140625,-45.41015625,-30.2734375,25.87890625
7,1746313058257.7188,-21.97265625,-49.31640625,-29.296875,24.4140625
8,1746313058261.625,-35.64453125,-42.48046875,-24.4140625,28.80859375
9,1746313058265.5312,-57.6171875,-43.9453125,-28.80859375,22.94921875
10,1746313058269.4375,-47.36328125,-50.29296875,-36.62109375,13.671875
11,1746313058273.3438,-34.1796875,-45.8984375,-34.66796875,15.13671875
0,1746313058277.25,-29.296875,-39.55078125,-37.59765625,-0.48828125
1,1746313058281.1562,-42.48046875,-40.52734375,-41.50390625,-25.87890625
2,1746313058285.0625,-57.12890625,-49.31640625,-43.9453125,-45.8984375
3,1746313058288.9688,-58.59375,-59.5703125,-48.33984375,-57.6171875
4,1746313058292.875,-63.96484375,-65.4296875,-41.9921875,-60.05859375
5,1746313058296.7812,-78.125,-73.73046875,-23.92578125,-96.6796875
6,1746313058300.6875,-87.40234375,-79.58984375,-24.90234375,-116.2109375
7,1746313058304.5938,-80.078125,-83.0078125,-35.64453125,-125.9765625
8,1746313058308.5,-66.40625,-90.33203125,-29.78515625,-153.3203125
9,1746313058312.4062,-74.70703125,-96.19140625,-22.94921875,-146.484375
10,1746313058316.3125,-88.8671875,-93.26171875,-25.390625,-154.296875
11,1746313058320.2188,-104.4921875,-92.7734375,-22.4609375,-165.0390625
0,1746313058324.125,-117.67578125,-100.5859375,-26.85546875,-148.92578125
1,1746313058328.0312,-98.14453125,-101.07421875,-26.85546875,-162.109375
2,1746313058331.9375,-72.265625,-110.3515625,-26.3671875,-167.48046875
3,1746313058335.8438,-39.55078125,-114.74609375,-22.94921875,-150.390625
4,1746313058339.75,-43.9453125,-95.21484375,-18.5546875,-154.78515625
5,1746313058343.6562,-62.01171875,-58.59375,-25.390625,-175.78125
6,1746313058347.5625,-62.5,-26.85546875,-26.85546875,-156.25
7,1746313058351.4688,-77.1484375,-20.5078125,-29.78515625,-152.34375
8,1746313058355.375,-84.9609375,-15.13671875,-36.62109375,-181.15234375
9,1746313058359.2812,-76.66015625,-10.7421875,-32.71484375,-143.06640625
10,1746313058363.1875,-95.703125,-12.6953125,-28.3203125,-148.92578125
11,1746313058367.0938,-111.81640625,1.46484375,-31.73828125,-194.3359375
0,1746313058371,-104.4921875,14.6484375,-34.66796875,-171.38671875
1,1746313058374.9062,-113.76953125,-2.9296875,-45.41015625,-174.8046875
2,1746313058378.8125,-132.32421875,-11.23046875,-41.015625,-180.6640625
3,1746313058382.7188,-127.44140625,-8.7890625,-32.71484375,-171.38671875
4,1746313058386.625,-116.2109375,-6.34765625,-34.1796875,-171.38671875
5,1746313058390.5312,-118.1640625,-3.41796875,-30.2734375,-169.43359375
6,1746313058394.4375,-127.9296875,-10.25390625,-23.4375,-143.06640625
7,1746313058398.3438,-109.86328125,-21.484375,-27.34375,-103.02734375
8,1746313058402.25,-104.98046875,-33.69140625,-32.71484375,-125.48828125
9,1746313058406.1562,-125,-38.57421875,-30.76171875,-176.7578125
10,1746313058410.0625,-115.72265625,-32.71484375,-31.73828125,-165.0390625
11,1746313058413.9688,-111.328125,-36.1328125,-31.25,-128.41796875
0,1746313058417.875,-103.02734375,-34.1796875,-23.92578125,-134.27734375
1,1746313058421.7812,-85.44921875,-36.62109375,-19.53125,-125
2,1746313058425.6875,-76.171875,-49.31640625,-26.85546875,-107.421875
3,1746313058429.5938,-62.98828125,-62.98828125,-33.203125,-94.7265625
4,1746313058433.5,-37.109375,-78.61328125,-36.62109375,-93.75
5,1746313058437.4062,-34.66796875,-77.63671875,-31.73828125,-108.88671875
6,1746313058441.3125,-31.25,-79.58984375,-29.296875,-96.19140625
7,1746313058445.2188,-5.37109375,-87.40234375,-35.64453125,-102.05078125
8,1746313058449.125,4.8828125,-84.9609375,-31.25,-104.98046875
9,1746313058453.0312,20.99609375,-82.03125,-26.3671875,-89.84375
10,1746313058456.9375,37.109375,-79.58984375,-23.92578125,-75.68359375
11,1746313058460.8438,42.48046875,-81.0546875,-22.4609375,-51.7578125
0,1746313058464.75,50.29296875,-84.9609375,-24.90234375,-34.1796875
1,1746313058468.6562,64.94140625,-87.40234375,-25.87890625,-24.90234375
2,1746313058472.5625,67.3828125,-88.8671875,-23.92578125,-18.06640625
3,1746313058476.4688,65.4296875,-88.37890625,-25.390625,-17.578125
4,1746313058480.375,77.1484375,-82.51953125,-18.06640625,10.7421875
5,1746313058484.2812,82.03125,-77.1484375,-12.20703125,14.6484375
6,1746313058488.1875,83.49609375,-82.51953125,-17.08984375,-3.41796875
7,1746313058492.0938,89.84375,-85.44921875,-23.4375,15.625
8,1746313058496,92.7734375,-83.0078125,-24.90234375,30.76171875
9,1746313058499.9062,83.984375,-83.49609375,-28.3203125,28.80859375
10,1746313058503.8125,75.68359375,-78.61328125,-23.4375,35.15625
11,1746313058507.7188,75.1953125,-76.171875,-13.671875,29.78515625
0,1746313058511.625,79.58984375,-78.61328125,-20.01953125,32.71484375
1,1746313058515.5312,97.16796875,-71.77734375,-20.01953125,68.84765625
2,1746313058519.4375,97.65625,-64.453125,-26.3671875,78.125
3,1746313058523.3438,90.8203125,-62.98828125,-31.25,65.91796875
4,1746313058527.25,87.40234375,-63.96484375,-32.71484375,46.38671875
5,1746313058531.1562,74.21875,-65.4296875,-36.1328125,52.734375
6,1746313058535.0625,79.58984375,-63.96484375,-40.0390625,63.4765625
7,1746313058538.9688,80.078125,-63.96484375,-40.52734375,34.1796875
8,1746313058542.875,62.5,-65.91796875,-36.1328125,37.109375
9,1746313058546.7812,47.8515625,-63.4765625,-34.1796875,38.57421875
10,1746313058550.6875,41.015625,-61.03515625,-34.66796875,23.4375
11,1746313058554.5938,41.50390625,-58.10546875,-34.1796875,34.1796875
0,1746313058558.5,48.33984375,-54.6875,-33.69140625,33.203125
1,1746313058562.4062,38.0859375,-55.6640625,-36.62109375,25.390625
2,1746313058566.3125,12.6953125,-52.734375,-35.64453125,29.78515625
3,1746313058570.2188,20.99609375,-42.48046875,-33.203125,29.78515625
4,1746313058574.125,23.4375,-41.9921875,-34.1796875,37.109375
5,1746313058578.0312,-2.44140625,-41.50390625,-32.2265625,22.94921875
6,1746313058581.9375,-15.13671875,-40.0390625,-33.69140625,-0.48828125
7,1746313058585.8438,4.39453125,-35.15625,-40.0390625,-8.7890625
8,1746313058589.75,3.41796875,-32.2265625,-35.64453125,-11.71875
9,1746313058593.6562,-1.953125,-33.203125,-33.203125,-6.34765625
10,1746313058597.5625,-1.46484375,-34.66796875,-35.15625,-5.37109375
11,1746313058601.4688,2.9296875,-36.62109375,-34.66796875,-27.34375
0,1746313058605.375,30.76171875,-33.69140625,-29.296875,-13.671875
1,1746313058609.2812,61.5234375,-31.73828125,-31.73828125,4.8828125
2,1746313058613.1875,66.40625,-39.0625,-41.50390625,-9.765625
3,1746313058617.0938,39.0625,-42.48046875,-40.0390625,-10.25390625
4,1746313058621,36.62109375,-41.015625,-37.59765625,-2.44140625
5,1746313058624.9062,42.96875,-32.2265625,-41.50390625,-45.8984375
6,1746313058628.8125,20.99609375,-30.76171875,-39.0625,-70.3125
7,1746313058632.7188,19.04296875,-35.64453125,-37.109375,-68.359375
8,1746313058636.625,26.85546875,-27.83203125,-30.76171875,-86.9140625
9,1746313058640.5312,20.5078125,-23.4375,-28.3203125,-86.9140625
10,1746313058644.4375,23.4375,-22.4609375,-36.62109375,-74.70703125
11,1746313058648.3438,21.484375,-24.90234375,-37.59765625,-72.75390625
0,1746313058652.25,20.5078125,-27.83203125,-38.0859375,-78.125
1,1746313058656.1562,18.5546875,-29.296875,-39.0625,-74.70703125
2,1746313058660.0625,1.46484375,-36.62109375,-37.59765625,-72.265625
3,1746313058663.9688,-1.953125,-40.52734375,-39.55078125,-61.03515625
4,1746313058667.875,-6.8359375,-40.0390625,-41.9921875,-49.31640625
5,1746313058671.7812,-23.4375,-41.9921875,-34.66796875,-81.54296875
6,1746313058675.6875,-13.671875,-41.50390625,-33.69140625,-100.09765625
7,1746313058679.5938,-19.53125,-41.50390625,-41.9921875,-84.9609375
8,1746313058683.5,-22.4609375,-46.875,-35.15625,-64.94140625
9,1746313058687.4062,-24.4140625,-43.45703125,-28.80859375,-59.5703125
10,1746313058691.3125,-39.0625,-33.69140625,-41.015625,-88.8671875
11,1746313058695.2188,-18.5546875,-38.57421875,-46.38671875,-100.5859375
0,1746313058699.125,-11.23046875,-40.52734375,-43.9453125,-84.9609375
1,1746313058703.0312,-18.06640625,-39.0625,-48.33984375,-72.75390625
2,1746313058706.9375,4.8828125,-35.15625,-40.0390625,-53.22265625
3,1746313058710.8438,-6.8359375,-33.69140625,-25.87890625,-38.57421875
4,1746313058714.75,-38.0859375,-37.59765625,-28.3203125,-34.66796875
5,1746313058718.6562,-22.94921875,-44.43359375,-24.90234375,-17.08984375
6,1746313058722.5625,-4.8828125,-47.8515625,-21.97265625,-25.390625
7,1746313058726.4688,-3.90625,-47.36328125,-34.66796875,-40.0390625
8,1746313058730.375,-22.94921875,-44.43359375,-32.71484375,-47.8515625
9,1746313058734.2812,-27.83203125,-43.45703125,-27.83203125,-35.15625
10,1746313058738.1875,-11.23046875,-42.96875,-31.25,-31.73828125
11,1746313058742.0938,13.18359375,-41.50390625,-35.15625,-32.2265625
0,1746313058746,5.859375,-41.015625,-37.59765625,-22.4609375
1,1746313058749.9062,-1.46484375,-41.50390625,-33.69140625,-29.78515625
2,1746313058753.8125,13.671875,-45.41015625,-30.2734375,-31.73828125
3,1746313058757.7188,-4.8828125,-42.48046875,-32.71484375,-27.83203125
4,1746313058761.625,-12.20703125,-41.9921875,-33.69140625,-32.2265625
5,1746313058765.5312,2.44140625,-40.0390625,-31.73828125,-32.2265625
6,1746313058769.4375,7.8125,-44.43359375,-30.76171875,-26.3671875
7,1746313058773.3438,22.94921875,-42.96875,-28.80859375,-11.71875
8,1746313058777.25,8.7890625,-33.203125,-28.3203125,-24.90234375
9,1746313058781.1562,-6.8359375,-39.0625,-32.2265625,-22.94921875
10,1746313058785.0625,21.97265625,-41.50390625,-36.62109375,-18.5546875
11,1746313058788.9688,49.31640625,-36.1328125,-29.296875,-31.25
0,1746313058792.875,29.296875,-34.66796875,-23.4375,-10.25390625
1,1746313058796.7812,21.97265625,-39.55078125,-25.390625,-2.9296875
2,1746313058800.6875,41.9921875,-38.57421875,-33.69140625,-11.23046875
3,1746313058804.5938,14.6484375,-41.9921875,-35.15625,-28.3203125
4,1746313058808.5,-8.7890625,-47.8515625,-35.15625,-51.26953125
5,1746313058812.4062,5.859375,-41.9921875,-32.71484375,-17.578125
6,1746313058816.3125,8.7890625,-43.9453125,-26.3671875,-0.9765625
7,1746313058820.2188,10.7421875,-52.24609375,-30.76171875,-10.7421875
8,1746313058824.125,16.6015625,-52.734375,-36.1328125,-25.87890625
9,1746313058828.0312,8.7890625,-48.828125,-36.62109375,-21.97265625
10,1746313058831.9375,22.94921875,-45.41015625,-34.1796875,-21.97265625
11,1746313058835.8438,59.08203125,-41.50390625,-30.76171875,-41.9921875
0,1746313058839.75,77.63671875,-36.62109375,-31.73828125,-36.62109375
1,1746313058843.6562,116.69921875,-32.71484375,-31.73828125,-29.78515625
2,1746313058847.5625,189.453125,-33.203125,-35.15625,-38.57421875
3,1746313058851.4688,233.3984375,-33.69140625,-37.109375,-43.9453125
4,1746313058855.375,288.0859375,-30.76171875,-32.2265625,16.11328125
5,1746313058859.2812,310.546875,-30.2734375,-29.78515625,41.9921875
6,1746313058863.1875,315.91796875,-30.2734375,-31.25,41.015625
7,1746313058867.0938,324.70703125,-26.3671875,-30.76171875,56.640625
8,1746313058871,301.26953125,-25.87890625,-32.2265625,45.41015625
9,1746313058874.9062,291.50390625,-26.85546875,-32.71484375,65.91796875
10,1746313058878.8125,318.84765625,-29.78515625,-28.80859375,59.5703125
11,1746313058882.7188,330.56640625,-29.78515625,-26.85546875,43.9453125
0,1746313058886.625,325.1953125,-23.4375,-34.66796875,46.875
1,1746313058890.5312,299.31640625,-27.34375,-35.15625,43.45703125
2,1746313058894.4375,272.94921875,-30.76171875,-21.484375,69.82421875
3,1746313058898.3438,273.4375,-25.87890625,-21.484375,37.59765625
4,1746313058902.25,274.4140625,-22.94921875,-27.83203125,43.9453125
5,1746313058906.1562,248.046875,-23.92578125,-30.2734375,49.31640625
6,1746313058910.0625,223.14453125,-24.90234375,-33.203125,10.7421875
7,1746313058913.9688,230.46875,-27.34375,-38.0859375,13.18359375
8,1746313058917.875,197.265625,-37.109375,-41.50390625,-12.6953125
9,1746313058921.7812,158.69140625,-42.48046875,-42.48046875,-0.9765625
10,1746313058925.6875,133.30078125,-40.52734375,-31.73828125,6.8359375
11,1746313058929.5938,109.86328125,-42.96875,-25.390625,-6.34765625
0,1746313058933.5,117.67578125,-41.015625,-30.2734375,-2.9296875
1,1746313058937.4062,114.2578125,-41.015625,-34.1796875,-3.90625
2,1746313058941.3125,103.02734375,-43.45703125,-31.25,-18.5546875
3,1746313058945.2188,94.7265625,-41.015625,-26.85546875,-30.76171875
4,1746313058949.125,85.44921875,-33.203125,-24.90234375,-5.859375
5,1746313058953.0312,83.0078125,-26.85546875,-26.3671875,-2.9296875
6,1746313058956.9375,78.125,-30.2734375,-25.390625,-2.9296875
7,1746313058960.8438,67.3828125,-35.64453125,-25.390625,9.27734375
8,1746313058964.75,62.98828125,-36.1328125,-30.2734375,-24.90234375
9,1746313058968.6562,53.22265625,-33.203125,-28.80859375,-63.4765625
10,1746313058972.5625,59.5703125,-37.59765625,-24.90234375,-83.984375
11,1746313058976.4688,74.21875,-44.43359375,-26.3671875,-79.1015625
0,1746313058980.375,82.03125,-39.0625,-25.390625,-4.8828125
1,1746313058984.2812,92.28515625,-7.32421875,-25.87890625,34.1796875
2,1746313058988.1875,115.234375,-15.13671875,-27.83203125,51.26953125
3,1746313058992.0938,112.79296875,-54.19921875,-26.85546875,55.17578125
4,1746313058996,110.83984375,-62.01171875,-14.16015625,44.43359375
5,1746313058999.9062,120.1171875,-70.80078125,-22.4609375,18.06640625
6,1746313059003.8125,49.31640625,-61.03515625,-37.59765625,-4.39453125
7,1746313059007.7188,-3.90625,-12.20703125,-30.2734375,5.859375
8,1746313059011.625,36.62109375,-0.48828125,-26.85546875,-28.3203125
9,1746313059015.5312,1.953125,-14.6484375,-25.87890625,-12.20703125
10,1746313059019.4375,-49.31640625,13.671875,-26.3671875,32.71484375
11,1746313059023.3438,-22.94921875,22.4609375,-15.13671875,33.203125
0,1746313059027.25,-59.5703125,-50.78125,5.859375,22.94921875
1,1746313059031.1562,-62.01171875,-142.08984375,-0.9765625,22.94921875
2,1746313059035.0625,-10.7421875,-129.39453125,-4.39453125,55.17578125
3,1746313059038.9688,-36.62109375,-43.45703125,-7.32421875,49.8046875
4,1746313059042.875,-105.46875,-13.18359375,-35.64453125,-34.66796875
5,1746313059046.7812,-85.9375,-38.57421875,-28.80859375,-44.921875
6,1746313059050.6875,-90.33203125,13.18359375,-33.69140625,-64.94140625
7,1746313059054.5938,-125.9765625,107.91015625,-54.19921875,-126.953125
8,1746313059058.5,-129.8828125,96.19140625,-47.8515625,-119.62890625
9,1746313059062.4062,-146.484375,30.2734375,-31.73828125,-90.8203125
10,1746313059066.3125,-144.53125,10.7421875,-37.59765625,-95.703125
11,1746313059070.2188,-118.65234375,0.9765625,-28.80859375,-108.88671875
0,1746313059074.125,-150.390625,-28.3203125,-14.6484375,-115.234375
1,1746313059078.0312,-200.1953125,-59.08203125,-41.50390625,-132.32421875
2,1746313059081.9375,-159.66796875,-126.953125,-34.66796875,-74.21875
3,1746313059085.8438,-148.4375,-106.93359375,-24.4140625,-83.984375
4,1746313059089.75,-204.1015625,35.15625,-56.15234375,-192.87109375
5,1746313059093.6562,-204.1015625,64.94140625,-46.875,-158.203125
6,1746313059097.5625,-169.43359375,20.5078125,-33.203125,-167.96875
7,1746313059101.4688,-186.03515625,31.73828125,-53.7109375,-241.69921875
8,1746313059105.375,-172.8515625,-38.0859375,-16.11328125,-192.87109375
9,1746313059109.2812,-154.296875,-69.82421875,8.7890625,-144.04296875
10,1746313059113.1875,-230.46875,-11.71875,-39.55078125,-176.7578125
11,1746313059117.0938,-214.84375,-38.57421875,-75.68359375,-202.63671875
0,1746313059121,-181.15234375,-95.703125,-66.40625,-202.63671875
1,1746313059124.9062,-230.46875,-82.03125,-42.48046875,-179.6875
2,1746313059128.8125,-211.9140625,-42.96875,-21.484375,-133.7890625
3,1746313059132.7188,-176.7578125,-17.08984375,-25.390625,-160.15625
4,1746313059136.625,-184.08203125,20.99609375,-25.87890625,-180.17578125
5,1746313059140.5312,-167.48046875,37.109375,-30.76171875,-152.83203125
6,1746313059144.4375,-135.7421875,20.5078125,-80.078125,-139.16015625
7,1746313059148.3438,-124.0234375,-30.2734375,-111.81640625,-157.2265625
8,1746313059152.25,-139.16015625,-67.3828125,-72.265625,-177.24609375
9,1746313059156.1562,-103.515625,-73.73046875,-4.8828125,-142.08984375
10,1746313059160.0625,-21.97265625,-88.37890625,51.26953125,-98.14453125
11,1746313059163.9688,-28.80859375,-48.828125,29.296875,-98.6328125
0,1746313059167.875,-112.79296875,22.4609375,-61.03515625,-151.3671875
1,1746313059171.7812,-137.20703125,0.9765625,-69.82421875,-136.71875
2,1746313059175.6875,-119.140625,-17.08984375,-58.10546875,-131.34765625
3,1746313059179.5938,-127.9296875,63.4765625,-59.5703125,-123.53515625
4,1746313059183.5,-111.81640625,84.47265625,-35.15625,-68.359375
5,1746313059187.4062,-80.56640625,59.08203125,-39.0625,-73.2421875
6,1746313059191.3125,-79.1015625,65.4296875,-63.4765625,-93.26171875
7,1746313059195.2188,-32.2265625,64.453125,-74.70703125,-45.41015625
8,1746313059199.125,11.23046875,15.625,-96.6796875,-18.06640625
9,1746313059203.0312,-14.16015625,-20.5078125,-66.40625,-40.0390625
10,1746313059206.9375,-30.76171875,43.45703125,-17.08984375,-77.1484375
11,1746313059210.8438,-7.32421875,63.96484375,-9.27734375,-73.73046875
0,1746313059214.75,2.9296875,26.3671875,-45.41015625,-17.578125
1,1746313059218.6562,-40.52734375,15.625,-69.82421875,2.9296875
2,1746313059222.5625,-63.96484375,6.8359375,-39.55078125,-38.0859375
3,1746313059226.4688,-32.2265625,-6.8359375,-20.01953125,-68.84765625
4,1746313059230.375,-11.71875,2.44140625,-33.69140625,-55.17578125
5,1746313059234.2812,27.83203125,1.953125,-34.66796875,-39.55078125
6,1746313059238.1875,32.71484375,-16.11328125,-60.546875,-35.64453125
7,1746313059242.0938,9.765625,8.30078125,-86.9140625,-48.33984375
8,1746313059246,-1.46484375,6.8359375,-62.01171875,-41.9921875
9,1746313059249.9062,-10.7421875,-23.4375,-41.9921875,-26.85546875
10,1746313059253.8125,36.62109375,-12.20703125,-29.296875,-16.6015625
11,1746313059257.7188,73.2421875,-13.671875,-26.85546875,2.9296875
0,1746313059261.625,58.59375,-31.73828125,-46.38671875,14.16015625
1,1746313059265.5312,62.01171875,-61.5234375,-34.66796875,27.83203125
2,1746313059269.4375,68.84765625,-38.57421875,-23.4375,30.76171875
3,1746313059273.3438,41.50390625,1.46484375,-45.8984375,11.23046875
4,1746313059277.25,39.0625,-46.875,-71.77734375,20.01953125
5,1746313059281.1562,70.80078125,-51.7578125,-61.5234375,41.9921875
6,1746313059285.0625,62.01171875,-14.6484375,-37.59765625,22.94921875
7,1746313059288.9688,41.015625,-24.4140625,-23.92578125,9.765625
8,1746313059292.875,39.0625,-73.2421875,3.90625,48.33984375
9,1746313059296.7812,60.05859375,-114.74609375,6.8359375,65.91796875
10,1746313059300.6875,25.390625,-76.171875,-36.62109375,54.6875
11,1746313059304.5938,-3.90625,-13.18359375,-56.15234375,68.84765625
0,1746313059308.5,29.78515625,-43.45703125,-30.76171875,71.2890625
1,1746313059312.4062,34.1796875,-83.984375,-28.80859375,61.5234375
2,1746313059316.3125,27.83203125,-27.34375,-60.05859375,41.015625
3,1746313059320.2188,44.921875,-4.8828125,-31.25,75.68359375
4,1746313059324.125,63.4765625,-75.1953125,-35.64453125,109.375
5,1746313059328.0312,46.38671875,-123.53515625,-76.66015625,99.12109375
6,1746313059331.9375,32.2265625,-76.66015625,-31.73828125,96.6796875
7,1746313059335.8438,34.66796875,-46.875,6.34765625,49.8046875
8,1746313059339.75,23.92578125,-54.6875,7.32421875,71.2890625
9,1746313059343.6562,-3.41796875,-64.453125,-0.48828125,67.3828125
10,1746313059347.5625,-13.671875,-69.3359375,12.20703125,15.13671875
11,1746313059351.4688,15.625,-75.68359375,19.04296875,38.0859375
0,1746313059355.375,46.875,-67.3828125,11.71875,60.546875
1,1746313059359.2812,18.06640625,-50.29296875,-13.671875,38.57421875
2,1746313059363.1875,-29.78515625,-63.4765625,-32.2265625,0.48828125
3,1746313059367.0938,-29.78515625,-37.59765625,-41.015625,5.37109375
4,1746313059371,-8.7890625,-13.18359375,-56.15234375,13.671875
5,1746313059374.9062,17.08984375,-42.48046875,-28.80859375,1.46484375
6,1746313059378.8125,41.015625,-103.02734375,5.859375,26.85546875
7,1746313059382.7188,22.4609375,-107.421875,-14.16015625,43.45703125
8,1746313059386.625,7.8125,-57.12890625,-52.734375,4.39453125
9,1746313059390.5312,2.9296875,-22.4609375,-45.41015625,-0.48828125
10,1746313059394.4375,-5.37109375,-13.671875,-35.64453125,14.16015625
11,1746313059398.3438,1.46484375,-31.73828125,-40.0390625,15.625
0,1746313059402.25,1.46484375,-55.6640625,-33.69140625,21.97265625
1,1746313059406.1562,0.48828125,-89.84375,-35.15625,7.8125
2,1746313059410.0625,12.20703125,-96.19140625,-30.76171875,1.953125
3,1746313059413.9688,0.48828125,-86.42578125,-18.5546875,5.859375
4,1746313059417.875,-1.953125,-71.77734375,-30.76171875,-18.5546875
5,1746313059421.7812,11.71875,-22.4609375,-41.50390625,-34.1796875
6,1746313059425.6875,13.18359375,-26.3671875,-34.1796875,-15.13671875
7,1746313059429.5938,28.80859375,-45.8984375,-21.97265625,-0.9765625
8,1746313059433.5,20.99609375,-54.19921875,-35.15625,-14.6484375
9,1746313059437.4062,-2.44140625,-66.89453125,-47.36328125,3.90625
10,1746313059441.3125,-20.99609375,-113.76953125,-29.296875,39.0625
11,1746313059445.2188,-36.1328125,-111.328125,-43.9453125,44.921875
0,1746313059449.125,-33.69140625,-23.92578125,-59.08203125,41.50390625
1,1746313059453.0312,-25.87890625,-47.8515625,-36.1328125,28.80859375
2,1746313059456.9375,-13.18359375,-83.49609375,-10.25390625,30.2734375
3,1746313059460.8438,-8.30078125,-44.921875,-2.9296875,37.59765625
4,1746313059464.75,-25.390625,-31.73828125,-31.73828125,5.859375
5,1746313059468.6562,-12.6953125,-19.04296875,-51.26953125,15.13671875
6,1746313059472.5625,-5.37109375,-21.484375,-46.38671875,42.48046875
7,1746313059476.4688,-16.6015625,-49.8046875,-40.0390625,39.55078125
8,1746313059480.375,-2.44140625,-85.44921875,-31.25,82.51953125
9,1746313059484.2812,10.25390625,-89.35546875,-43.9453125,85.44921875
10,1746313059488.1875,-7.8125,-52.734375,-52.24609375,38.57421875
11,1746313059492.0938,-39.0625,-21.484375,-46.38671875,53.7109375
0,1746313059496,-28.3203125,-21.97265625,-35.64453125,89.84375
1,1746313059499.9062,-13.671875,-46.875,-21.97265625,95.703125
2,1746313059503.8125,-19.04296875,-68.359375,-23.4375,89.35546875
3,1746313059507.7188,-6.8359375,-65.4296875,-38.0859375,79.58984375
4,1746313059511.625,-1.953125,-44.921875,-49.31640625,62.5
5,1746313059515.5312,4.8828125,-53.7109375,-36.62109375,61.5234375
6,1746313059519.4375,-7.8125,-68.84765625,-47.36328125,70.3125
7,1746313059523.3438,-23.92578125,-50.29296875,-39.55078125,77.1484375
8,1746313059527.25,-21.484375,-50.78125,-25.390625,62.01171875
9,1746313059531.1562,-30.76171875,-45.8984375,-40.0390625,45.8984375
10,1746313059535.0625,-43.9453125,-21.484375,-30.2734375,75.68359375
11,1746313059538.9688,-37.109375,-20.5078125,-25.87890625,57.12890625
0,1746313059542.875,-31.73828125,-26.85546875,-26.3671875,36.62109375
1,1746313059546.7812,-30.76171875,-40.0390625,-37.59765625,42.96875
2,1746313059550.6875,-34.1796875,-41.50390625,-56.640625,56.640625
3,1746313059554.5938,-28.3203125,-36.1328125,-56.15234375,65.4296875
4,1746313059558.5,-40.0390625,-57.12890625,-47.36328125,29.78515625
5,1746313059562.4062,-77.63671875,-57.6171875,-31.25,4.39453125
6,1746313059566.3125,-63.96484375,-46.875,-16.11328125,3.41796875
7,1746313059570.2188,-17.08984375,-43.45703125,-2.9296875,19.04296875
8,1746313059574.125,-74.21875,-32.2265625,-38.57421875,-13.671875
9,1746313059578.0312,-152.83203125,-72.265625,-45.8984375,-3.41796875
10,1746313059581.9375,-81.0546875,-87.890625,-39.55078125,71.77734375
11,1746313059585.8438,-45.8984375,-90.8203125,-53.22265625,24.90234375
0,1746313059589.75,-76.66015625,-92.7734375,-13.18359375,-10.7421875
1,1746313059593.6562,-88.8671875,-42.48046875,-19.04296875,20.99609375
2,1746313059597.5625,-100.09765625,-26.85546875,-57.12890625,-1.953125
3,1746313059601.4688,-84.47265625,-7.32421875,-26.3671875,-47.36328125
4,1746313059605.375,-63.96484375,-12.6953125,-9.765625,-39.55078125
5,1746313059609.2812,-77.63671875,-42.96875,-19.04296875,-28.80859375
6,1746313059613.1875,-105.95703125,-50.29296875,-26.3671875,-41.9921875
7,1746313059617.0938,-129.8828125,-50.78125,-25.87890625,-38.57421875
8,1746313059621,-120.1171875,-45.41015625,-23.4375,-41.50390625
9,1746313059624.9062,-119.62890625,-38.57421875,-28.3203125,-71.2890625
10,1746313059628.8125,-127.44140625,-26.3671875,-41.015625,-86.9140625
11,1746313059632.7188,-100.09765625,-20.01953125,-55.17578125,-75.1953125
0,1746313059636.625,-74.70703125,-25.87890625,-47.36328125,-57.12890625
1,1746313059640.5312,-113.28125,-20.01953125,-30.76171875,-65.4296875
2,1746313059644.4375,-156.73828125,-40.52734375,-13.18359375,-71.2890625
3,1746313059648.3438,-159.66796875,-50.78125,-17.578125,-84.47265625
4,1746313059652.25,-137.20703125,-45.8984375,-32.2265625,-121.58203125
5,1746313059656.1562,-155.2734375,-42.48046875,-37.109375,-112.79296875
6,1746313059660.0625,-187.98828125,-52.734375,-30.76171875,-99.609375
7,1746313059663.9688,-139.16015625,-45.41015625,-15.13671875,-117.67578125
8,1746313059667.875,-115.72265625,-40.0390625,-13.18359375,-141.6015625
9,1746313059671.7812,-133.30078125,-52.734375,-26.3671875,-160.15625
10,1746313059675.6875,-143.5546875,-45.8984375,-22.4609375,-170.41015625
11,1746313059679.5938,-166.015625,-40.0390625,-16.6015625,-178.22265625
0,1746313059683.5,-160.64453125,-45.8984375,-14.6484375,-156.25
1,1746313059687.4062,-145.5078125,-37.109375,-23.92578125,-169.921875
2,1746313059691.3125,-132.8125,-29.296875,-41.50390625,-214.84375
3,1746313059695.2188,-147.4609375,-55.6640625,-24.4140625,-232.421875
4,1746313059699.125,-191.40625,-56.640625,-11.23046875,-235.3515625
5,1746313059703.0312,-182.6171875,-39.55078125,-13.18359375,-191.40625
6,1746313059706.9375,-187.5,-31.73828125,-20.01953125,-198.73046875
7,1746313059710.8438,-194.3359375,-34.1796875,-20.01953125,-216.796875
8,1746313059714.75,-173.33984375,-33.203125,-20.01953125,-157.2265625
9,1746313059718.6562,-148.4375,-25.87890625,-24.90234375,-154.296875
10,1746313059722.5625,-152.34375,-26.3671875,-20.5078125,-205.078125
11,1746313059726.4688,-157.71484375,-18.5546875,-12.20703125,-174.8046875
0,1746313059730.375,-166.015625,-6.34765625,-20.01953125,-128.41796875
1,1746313059734.2812,-177.734375,-8.7890625,-25.390625,-125.48828125
2,1746313059738.1875,-153.3203125,-24.4140625,-18.06640625,-133.30078125
3,1746313059742.0938,-134.765625,-30.2734375,-19.04296875,-120.1171875
4,1746313059746,-83.49609375,-14.6484375,-15.625,-88.37890625
5,1746313059749.9062,-39.55078125,-3.90625,-5.859375,-61.03515625
6,1746313059753.8125,-53.22265625,-13.671875,-10.7421875,-66.89453125
7,1746313059757.7188,-63.4765625,-23.4375,-20.99609375,-84.9609375
8,1746313059761.625,-40.0390625,-15.625,-18.5546875,-59.5703125
9,1746313059765.5312,0.48828125,-14.16015625,-14.16015625,-55.17578125
10,1746313059769.4375,27.83203125,-9.765625,-14.6484375,-56.640625
11,1746313059773.3438,26.3671875,-10.7421875,-16.11328125,-44.921875
0,1746313059777.25,29.78515625,-35.64453125,-18.5546875,-53.22265625
1,1746313059781.1562,50.78125,-35.15625,-14.6484375,-38.57421875
2,1746313059785.0625,67.87109375,-37.59765625,-19.53125,-46.38671875
3,1746313059788.9688,82.03125,-50.29296875,-34.1796875,-51.7578125
4,1746313059792.875,94.7265625,-52.734375,-27.34375,-12.20703125
5,1746313059796.7812,85.44921875,-52.734375,-17.08984375,14.6484375
6,1746313059800.6875,86.42578125,-49.31640625,-26.85546875,16.11328125
7,1746313059804.5938,111.81640625,-62.5,-30.2734375,19.53125
8,1746313059808.5,89.35546875,-49.8046875,-26.3671875,9.765625
9,1746313059812.4062,76.66015625,-50.78125,-23.4375,24.90234375
10,1746313059816.3125,121.58203125,-57.6171875,-24.4140625,48.828125
11,1746313059820.2188,136.71875,-42.48046875,-28.3203125,59.08203125
0,1746313059824.125,109.375,-43.9453125,-25.87890625,29.78515625
1,1746313059828.0312,90.8203125,-39.55078125,-26.85546875,14.16015625
2,1746313059831.9375,100.09765625,-27.34375,-31.25,44.921875
3,1746313059835.8438,110.3515625,-39.55078125,-32.2265625,59.08203125
4,1746313059839.75,98.6328125,-47.36328125,-33.69140625,39.0625
5,1746313059843.6562,81.54296875,-31.25,-31.73828125,47.8515625
6,1746313059847.5625,80.078125,-24.90234375,-31.25,40.0390625
7,1746313059851.4688,103.515625,-18.06640625,-38.0859375,17.578125
8,1746313059855.375,81.0546875,-18.5546875,-32.2265625,20.5078125
9,1746313059859.2812,27.34375,-33.69140625,-27.83203125,17.578125
10,1746313059863.1875,49.31640625,-36.1328125,-40.0390625,36.1328125
11,1746313059867.0938,85.44921875,-15.625,-46.38671875,19.53125
0,1746313059871,36.62109375,-9.27734375,-45.41015625,-8.30078125
1,1746313059874.9062,15.625,-32.71484375,-41.50390625,2.9296875
2,1746313059878.8125,76.171875,-32.2265625,-42.48046875,0
3,1746313059882.7188,105.46875,-17.578125,-43.9453125,8.30078125
4,1746313059886.625,80.56640625,-8.7890625,-41.9921875,-3.41796875
5,1746313059890.5312,52.24609375,-10.7421875,-41.50390625,-18.5546875
6,1746313059894.4375,57.6171875,-18.06640625,-47.8515625,-32.2265625
7,1746313059898.3438,42.96875,-21.484375,-50.78125,-20.99609375
8,1746313059902.25,36.1328125,-35.15625,-46.38671875,-24.90234375
9,1746313059906.1562,25.87890625,-42.48046875,-47.8515625,-71.2890625
10,1746313059910.0625,1.46484375,-33.203125,-50.78125,-61.5234375
11,1746313059913.9688,11.71875,-29.296875,-49.8046875,-11.71875
0,1746313059917.875,31.25,-23.92578125,-39.0625,-35.15625
1,1746313059921.7812,-5.859375,-21.97265625,-42.96875,-93.26171875
2,1746313059925.6875,-12.6953125,-40.0390625,-53.7109375,-103.02734375
3,1746313059929.5938,38.0859375,-45.8984375,-46.875,-97.65625
4,1746313059933.5,23.4375,-46.38671875,-48.33984375,-101.5625
5,1746313059937.4062,11.71875,-36.1328125,-43.9453125,-128.90625
6,1746313059941.3125,-8.7890625,-47.36328125,-34.1796875,-125.9765625
7,1746313059945.2188,-58.10546875,-32.2265625,-42.48046875,-109.375
8,1746313059949.125,-37.59765625,-11.23046875,-45.41015625,-105.46875
9,1746313059953.0312,2.9296875,-33.69140625,-39.55078125,-90.8203125
10,1746313059956.9375,-21.484375,-31.25,-38.57421875,-79.1015625
11,1746313059960.8438,-73.73046875,-38.57421875,-32.71484375,-95.703125
0,1746313059964.75,-38.0859375,-41.50390625,-34.66796875,-130.37109375
1,1746313059968.6562,26.85546875,-36.62109375,-32.2265625,-80.56640625
2,1746313059972.5625,9.765625,-24.4140625,-42.96875,-19.04296875
3,1746313059976.4688,-13.671875,-55.6640625,-38.0859375,-20.01953125
4,1746313059980.375,-8.30078125,-51.7578125,-20.5078125,-37.109375
5,1746313059984.2812,-18.5546875,-27.34375,-32.2265625,-38.57421875
6,1746313059988.1875,11.23046875,-34.1796875,-36.1328125,-24.4140625
7,1746313059992.0938,1.953125,-12.6953125,-34.66796875,-51.26953125
8,1746313059996,-26.85546875,-9.27734375,-36.62109375,-32.2265625
9,1746313059999.9062,-8.7890625,-51.7578125,-20.99609375,17.08984375
10,1746313060003.8125,-48.33984375,-18.06640625,-19.04296875,-57.6171875
11,1746313060007.7188,-71.2890625,-16.11328125,-14.16015625,-94.23828125
0,1746313060011.625,-72.265625,-6.34765625,-21.97265625,-74.21875
1,1746313060015.5312,-61.5234375,-4.39453125,-34.1796875,-39.55078125
2,1746313060019.4375,6.8359375,-60.546875,-35.15625,-18.06640625
3,1746313060023.3438,8.7890625,-40.52734375,-34.1796875,-29.78515625
4,1746313060027.25,-39.55078125,-56.15234375,1.953125,-61.5234375
5,1746313060031.1562,-39.55078125,4.8828125,-24.4140625,-87.40234375
6,1746313060035.0625,-36.1328125,43.45703125,-56.640625,-77.1484375
7,1746313060038.9688,-23.92578125,-41.50390625,-38.0859375,3.41796875
8,1746313060042.875,20.01953125,-50.29296875,-38.0859375,21.97265625
9,1746313060046.7812,20.5078125,-55.6640625,-14.16015625,-25.390625
10,1746313060050.6875,-47.36328125,-70.3125,2.9296875,-12.6953125
11,1746313060054.5938,-13.18359375,-59.08203125,-28.3203125,-7.8125
0,1746313060058.5,62.01171875,-38.0859375,-59.5703125,37.59765625
1,1746313060062.4062,15.13671875,-26.85546875,-50.29296875,34.1796875
2,1746313060066.3125,-5.859375,-57.12890625,-22.4609375,-19.04296875
3,1746313060070.2188,-10.25390625,-79.58984375,14.6484375,-73.73046875
4,1746313060074.125,-34.1796875,10.25390625,-28.80859375,-105.46875
5,1746313060078.0312,-68.359375,25.87890625,-62.5,-28.80859375
6,1746313060081.9375,-22.94921875,-73.73046875,-8.7890625,22.4609375
7,1746313060085.8438,54.19921875,-102.5390625,8.30078125,-4.8828125
8,1746313060089.75,52.24609375,2.9296875,-55.17578125,-0.48828125
9,1746313060093.6562,-58.10546875,92.7734375,-100.09765625,-11.23046875
10,1746313060097.5625,-54.19921875,-46.38671875,-32.2265625,-1.953125
11,1746313060101.4688,69.3359375,-122.0703125,0,61.03515625
0,1746313060105.375,-27.34375,-48.828125,-41.9921875,12.6953125
1,1746313060109.2812,-113.76953125,-53.7109375,-22.4609375,-25.87890625
2,1746313060113.1875,-15.625,-70.3125,-3.41796875,24.4140625
3,1746313060117.0938,80.56640625,-34.66796875,-43.45703125,78.125
4,1746313060121,20.01953125,16.11328125,-68.359375,78.61328125
5,1746313060124.9062,-47.8515625,27.83203125,-47.36328125,0
6,1746313060128.8125,35.64453125,-55.6640625,-34.1796875,13.671875
7,1746313060132.7188,59.5703125,-94.23828125,-14.6484375,43.45703125
8,1746313060136.625,28.3203125,-38.0859375,-19.53125,19.53125
9,1746313060140.5312,36.62109375,-23.4375,-48.33984375,50.29296875
10,1746313060144.4375,77.63671875,-42.96875,-39.55078125,33.69140625
11,1746313060148.3438,41.50390625,11.23046875,-46.38671875,-5.37109375
0,1746313060152.25,51.7578125,0,-48.33984375,22.4609375
1,1746313060156.1562,156.25,-71.77734375,-11.23046875,31.25
2,1746313060160.0625,193.359375,-54.19921875,-11.71875,-3.41796875
3,1746313060163.9688,158.203125,-36.1328125,-16.6015625,-11.23046875
4,1746313060167.875,127.44140625,-41.9921875,-13.671875,0
5,1746313060171.7812,163.0859375,-31.73828125,-39.0625,-10.7421875
6,1746313060175.6875,187.01171875,-18.5546875,-41.015625,49.31640625
7,1746313060179.5938,161.1328125,-10.7421875,-28.3203125,66.89453125
8,1746313060183.5,190.4296875,-39.55078125,-41.9921875,74.70703125
9,1746313060187.4062,229.98046875,-48.33984375,-51.7578125,125
10,1746313060191.3125,167.48046875,-37.59765625,-18.06640625,56.640625
11,1746313060195.2188,177.24609375,-34.66796875,-27.83203125,9.765625
0,1746313060199.125,222.16796875,1.46484375,-58.10546875,41.015625
1,1746313060203.0312,220.703125,17.08984375,-56.15234375,41.50390625
2,1746313060206.9375,174.8046875,-32.2265625,-42.48046875,63.4765625
3,1746313060210.8438,184.08203125,-40.0390625,-35.64453125,107.421875
4,1746313060214.75,198.2421875,-39.55078125,-26.3671875,101.5625
5,1746313060218.6562,138.18359375,-43.45703125,-24.90234375,30.76171875
6,1746313060222.5625,102.05078125,-32.2265625,-33.69140625,23.92578125
7,1746313060226.4688,125,-6.8359375,-38.57421875,27.83203125
8,1746313060230.375,181.15234375,-12.20703125,-32.2265625,22.94921875
9,1746313060234.2812,190.4296875,-75.1953125,-12.20703125,59.5703125
10,1746313060238.1875,139.6484375,-59.5703125,3.41796875,38.57421875
11,1746313060242.0938,82.03125,-83.0078125,18.5546875,-7.8125
0,1746313060246,147.94921875,-83.984375,-32.2265625,20.99609375
1,1746313060249.9062,191.89453125,-32.71484375,-44.43359375,66.40625
2,1746313060253.8125,110.3515625,-38.57421875,-7.8125,18.06640625
3,1746313060257.7188,81.54296875,-29.78515625,-38.57421875,0.48828125
4,1746313060261.625,116.2109375,-30.76171875,-37.109375,66.40625
5,1746313060265.5312,131.34765625,-45.41015625,-20.99609375,37.59765625
6,1746313060269.4375,127.9296875,-47.36328125,-35.15625,-60.05859375
7,1746313060273.3438,96.19140625,-37.59765625,-40.0390625,-27.34375
8,1746313060277.25,83.0078125,-20.01953125,-46.875,45.41015625
9,1746313060281.1562,51.7578125,-24.90234375,-27.83203125,31.25
10,1746313060285.0625,-3.90625,-53.22265625,-3.41796875,-17.578125
11,1746313060288.9688,28.80859375,-62.01171875,5.37109375,9.27734375
0,1746313060292.875,33.69140625,-51.7578125,-21.97265625,37.109375
1,1746313060296.7812,-20.01953125,-24.4140625,-51.26953125,14.6484375
2,1746313060300.6875,10.7421875,-8.7890625,-43.9453125,-9.27734375
3,1746313060304.5938,18.5546875,-21.97265625,-44.921875,-2.9296875
4,1746313060308.5,3.90625,-43.9453125,-31.73828125,19.53125
5,1746313060312.4062,33.203125,-16.11328125,-29.296875,-12.20703125
6,1746313060316.3125,47.36328125,-14.6484375,-47.8515625,-20.01953125
7,1746313060320.2188,47.36328125,-35.64453125,-30.76171875,-23.92578125
8,1746313060324.125,18.06640625,-41.50390625,-18.06640625,-35.15625
9,1746313060328.0312,-11.71875,-7.8125,-22.94921875,-60.05859375
10,1746313060331.9375,-31.25,0,-34.66796875,-75.68359375
11,1746313060335.8438,-19.04296875,-20.01953125,-37.59765625,-36.1328125
0,1746313060339.75,8.7890625,-31.73828125,-14.6484375,-40.0390625
1,1746313060343.6562,33.203125,-4.39453125,-34.66796875,-57.12890625
2,1746313060347.5625,11.71875,18.06640625,-39.0625,-53.22265625
3,1746313060351.4688,18.06640625,-33.69140625,-12.6953125,-22.94921875
4,1746313060355.375,20.01953125,-33.69140625,1.46484375,-55.17578125
5,1746313060359.2812,-6.8359375,-16.6015625,-14.16015625,-98.6328125
6,1746313060363.1875,-11.71875,-30.2734375,-27.34375,-39.55078125
7,1746313060367.0938,-40.52734375,-31.25,-16.6015625,-42.96875
8,1746313060371,-23.92578125,-27.34375,-39.55078125,-47.8515625
9,1746313060374.9062,-4.8828125,-22.4609375,-36.1328125,-20.99609375
10,1746313060378.8125,-61.5234375,13.18359375,-27.34375,-80.078125
11,1746313060382.7188,-89.84375,-18.06640625,-20.5078125,-77.63671875
0,1746313060386.625,-58.59375,-56.640625,-9.27734375,-63.4765625
1,1746313060390.5312,16.6015625,-37.109375,-36.1328125,-44.43359375
2,1746313060394.4375,-7.8125,-32.2265625,-39.0625,-10.7421875
3,1746313060398.3438,-42.48046875,-6.8359375,-51.26953125,-15.625
4,1746313060402.25,-31.73828125,7.8125,-52.734375,-27.83203125
5,1746313060406.1562,-17.08984375,-37.59765625,-18.06640625,-44.921875
6,1746313060410.0625,14.16015625,-46.38671875,-20.01953125,-18.06640625
7,1746313060413.9688,12.6953125,-13.671875,-33.203125,-43.45703125
8,1746313060417.875,-41.9921875,-25.390625,-19.04296875,-93.26171875
9,1746313060421.7812,-55.17578125,0.9765625,-34.66796875,-107.91015625
10,1746313060425.6875,-1.953125,-16.6015625,-30.76171875,-27.34375
11,1746313060429.5938,-13.671875,-47.8515625,-7.32421875,-13.18359375
0,1746313060433.5,-15.13671875,-9.765625,-32.71484375,-36.62109375
1,1746313060437.4062,15.13671875,-9.27734375,-43.9453125,18.5546875
2,1746313060441.3125,7.32421875,-16.6015625,-45.41015625,30.76171875
3,1746313060445.2188,-15.13671875,-31.73828125,-34.66796875,6.34765625
4,1746313060449.125,-30.2734375,-33.203125,-29.296875,-41.50390625
5,1746313060453.0312,0.48828125,-20.01953125,-19.53125,-41.015625
6,1746313060456.9375,-4.8828125,-10.25390625,-22.4609375,-11.71875
7,1746313060460.8438,-30.2734375,-19.53125,-37.59765625,-12.20703125
8,1746313060464.75,-25.390625,6.8359375,-44.921875,-31.25
9,1746313060468.6562,-52.24609375,-22.4609375,-27.83203125,-41.9921875
10,1746313060472.5625,-41.50390625,-43.45703125,-21.97265625,-55.17578125
11,1746313060476.4688,-10.7421875,-25.390625,-37.59765625,-46.875
0,1746313060480.375,-0.48828125,-52.734375,-22.4609375,-4.8828125
1,1746313060484.2812,-26.85546875,-22.94921875,-14.16015625,-33.203125
2,1746313060488.1875,-38.0859375,-13.18359375,-43.9453125,-47.8515625
3,1746313060492.0938,-37.59765625,-38.0859375,-50.29296875,-23.92578125
4,1746313060496,-59.5703125,-34.1796875,-25.390625,-42.48046875
5,1746313060499.9062,-27.34375,-38.57421875,-13.671875,-60.546875
6,1746313060503.8125,19.04296875,-30.2734375,-30.2734375,-97.65625
7,1746313060507.7188,-2.44140625,-34.66796875,-34.66796875,-94.7265625
8,1746313060511.625,-35.64453125,-31.73828125,-28.3203125,-37.59765625
9,1746313060515.5312,-49.31640625,-0.48828125,-14.6484375,-54.6875
10,1746313060519.4375,-29.296875,-13.671875,-17.08984375,-82.03125
11,1746313060523.3438,2.9296875,-37.109375,-29.296875,-64.94140625
0,1746313060527.25,-21.484375,-27.83203125,2.9296875,-107.91015625
1,1746313060531.1562,-27.34375,-20.99609375,-33.203125,-41.015625
2,1746313060535.0625,-13.18359375,6.34765625,-64.94140625,6.8359375
3,1746313060538.9688,6.8359375,9.765625,-49.31640625,-60.05859375
4,1746313060542.875,-26.3671875,-8.7890625,-30.2734375,-20.01953125
5,1746313060546.7812,-47.36328125,-15.13671875,-29.296875,-13.671875
6,1746313060550.6875,-8.30078125,-47.36328125,-22.4609375,-67.3828125
7,1746313060554.5938,9.765625,-36.1328125,-16.6015625,-66.40625
8,1746313060558.5,-6.8359375,-18.06640625,-1.953125,-101.07421875
9,1746313060562.4062,-16.11328125,-11.71875,-32.2265625,-101.5625
10,1746313060566.3125,-8.7890625,-21.97265625,-34.1796875,-77.63671875
11,1746313060570.2188,-6.8359375,-20.99609375,-31.25,-110.83984375
0,1746313060574.125,-6.8359375,-23.92578125,-43.9453125,-87.40234375
1,1746313060578.0312,-47.36328125,-25.390625,-30.2734375,-65.91796875
2,1746313060581.9375,-55.17578125,-27.34375,-27.83203125,-95.703125
3,1746313060585.8438,-40.0390625,-16.6015625,-37.59765625,-91.30859375
4,1746313060589.75,-45.41015625,-9.765625,-47.36328125,-50.29296875
5,1746313060593.6562,-25.390625,-42.96875,-20.99609375,-40.52734375
6,1746313060597.5625,22.4609375,-45.8984375,-19.04296875,-56.640625
7,1746313060601.4688,-36.62109375,-20.99609375,-9.765625,-117.67578125
8,1746313060605.375,-88.8671875,-23.4375,-22.4609375,-114.2578125
9,1746313060609.2812,0.48828125,-20.99609375,-52.24609375,-17.08984375
10,1746313060613.1875,3.90625,-23.4375,-35.64453125,-24.90234375
11,1746313060617.0938,-63.4765625,-24.4140625,-18.5546875,-62.5
0,1746313060621,-68.84765625,-28.80859375,-11.71875,-113.28125
1,1746313060624.9062,-41.9921875,-51.26953125,-22.94921875,-130.37109375
2,1746313060628.8125,-16.11328125,-22.94921875,-40.52734375,-55.17578125
3,1746313060632.7188,-3.90625,12.20703125,-45.41015625,-33.69140625
4,1746313060636.625,-14.6484375,-8.7890625,-43.9453125,-13.18359375
5,1746313060640.5312,-16.6015625,-31.25,-35.15625,-21.97265625
6,1746313060644.4375,-94.7265625,-32.2265625,-4.39453125,-64.453125
7,1746313060648.3438,-120.60546875,-25.390625,-5.37109375,-45.41015625
8,1746313060652.25,-73.73046875,-30.76171875,-36.1328125,3.41796875
9,1746313060656.1562,-68.84765625,-45.8984375,0,-41.50390625
10,1746313060660.0625,-67.3828125,-26.3671875,-7.8125,-96.6796875
11,1746313060663.9688,-155.2734375,-12.20703125,-61.5234375,-16.11328125
0,1746313060667.875,-153.80859375,-15.13671875,-62.98828125,-10.25390625
1,1746313060671.7812,-106.93359375,-22.4609375,-42.96875,-17.578125
2,1746313060675.6875,-96.6796875,-28.3203125,-27.34375,29.78515625
3,1746313060679.5938,-41.9921875,-31.25,-28.3203125,42.96875
4,1746313060683.5,-72.75390625,-21.484375,-27.34375,10.25390625
5,1746313060687.4062,-145.5078125,-17.08984375,-23.92578125,-62.98828125
6,1746313060691.3125,-168.45703125,-25.87890625,-36.62109375,-41.9921875
7,1746313060695.2188,-154.296875,-40.0390625,-27.83203125,-35.15625
8,1746313060699.125,-127.9296875,-21.97265625,-21.97265625,-48.828125
9,1746313060703.0312,-86.9140625,-22.4609375,-33.69140625,22.94921875
10,1746313060706.9375,-106.93359375,-26.3671875,-3.41796875,-38.0859375
11,1746313060710.8438,-190.91796875,-22.4609375,5.859375,-121.58203125
0,1746313060714.75,-199.21875,-36.62109375,-36.1328125,14.16015625
1,1746313060718.6562,-181.640625,-32.2265625,-22.4609375,3.90625
2,1746313060722.5625,-216.796875,-25.87890625,-18.06640625,-12.20703125
3,1746313060726.4688,-220.21484375,-8.30078125,-48.828125,72.265625
4,1746313060730.375,-184.5703125,16.11328125,-59.5703125,35.15625
5,1746313060734.2812,-166.015625,1.953125,-34.66796875,40.52734375
6,1746313060738.1875,-138.18359375,-33.203125,-10.25390625,52.734375
7,1746313060742.0938,-110.3515625,-32.71484375,-25.390625,43.9453125
8,1746313060746,-84.47265625,-25.87890625,-26.85546875,71.2890625
9,1746313060749.9062,-83.0078125,-17.578125,-17.08984375,64.453125
10,1746313060753.8125,-111.81640625,-18.5546875,-29.296875,59.5703125
11,1746313060757.7188,-125.9765625,-0.48828125,-42.96875,75.1953125
0,1746313060761.625,-152.34375,-9.765625,-41.9921875,52.734375
1,1746313060765.5312,-143.5546875,-39.0625,-32.2265625,22.4609375
2,1746313060769.4375,-109.86328125,-30.76171875,-19.04296875,35.64453125
3,1746313060773.3438,-101.07421875,-22.4609375,-11.23046875,31.25
4,1746313060777.25,-115.72265625,-19.53125,-21.97265625,4.8828125
5,1746313060781.1562,-111.81640625,-14.16015625,-21.484375,-5.37109375
6,1746313060785.0625,-92.28515625,-24.90234375,-17.578125,18.06640625
7,1746313060788.9688,-100.09765625,-25.87890625,-5.859375,49.31640625
8,1746313060792.875,-107.421875,-8.30078125,-6.8359375,5.859375
9,1746313060796.7812,-120.60546875,-22.94921875,-31.25,-8.7890625
10,1746313060800.6875,-115.234375,-23.92578125,-23.4375,24.90234375
11,1746313060804.5938,-58.59375,-18.5546875,-13.18359375,3.41796875
0,1746313060808.5,-52.734375,-24.90234375,-22.94921875,-4.8828125
1,1746313060812.4062,-75.68359375,-21.97265625,-32.71484375,38.57421875
2,1746313060816.3125,-111.328125,-18.06640625,-21.484375,20.5078125
3,1746313060820.2188,-123.046875,-24.90234375,-15.13671875,-60.05859375
4,1746313060824.125,-107.91015625,-28.80859375,-20.5078125,-70.3125
5,1746313060828.0312,-98.6328125,-23.92578125,-17.08984375,-77.1484375
6,1746313060831.9375,-104.00390625,-21.97265625,-16.11328125,-70.3125
7,1746313060835.8438,-106.4453125,-27.83203125,-27.34375,37.59765625
8,1746313060839.75,-85.44921875,-37.109375,-20.99609375,125.9765625
9,1746313060843.6562,-67.3828125,-1.953125,-22.94921875,104.00390625
10,1746313060847.5625,-113.76953125,0.48828125,-20.01953125,54.6875
11,1746313060851.4688,-104.4921875,-32.71484375,-27.34375,121.58203125
0,1746313060855.375,-58.59375,-11.23046875,-37.59765625,127.9296875
1,1746313060859.2812,-45.8984375,-13.671875,-22.94921875,62.5
2,1746313060863.1875,-55.6640625,-20.99609375,-20.5078125,89.84375
3,1746313060867.0938,-76.66015625,-9.765625,-28.3203125,108.88671875
4,1746313060871,-85.9375,-27.34375,-24.90234375,98.14453125
5,1746313060874.9062,-50.78125,-31.25,-26.3671875,83.0078125
6,1746313060878.8125,-22.94921875,-22.94921875,-25.390625,98.14453125
7,1746313060882.7188,-57.12890625,-22.4609375,-25.87890625,106.4453125
8,1746313060886.625,-85.9375,-15.625,-37.109375,84.47265625
9,1746313060890.5312,-59.5703125,-23.4375,-30.2734375,87.890625
10,1746313060894.4375,-37.59765625,-24.90234375,-26.3671875,141.6015625
11,1746313060898.3438,-42.96875,-23.4375,-26.3671875,125.9765625
0,1746313060902.25,-49.31640625,-39.0625,-20.99609375,67.87109375
1,1746313060906.1562,-91.796875,-17.08984375,-28.80859375,106.93359375
2,1746313060910.0625,-53.7109375,8.30078125,-41.015625,120.60546875
3,1746313060913.9688,-44.43359375,-17.08984375,-36.1328125,49.8046875
4,1746313060917.875,-64.453125,-39.55078125,-30.2734375,36.1328125
5,1746313060921.7812,-98.6328125,-33.203125,-11.23046875,53.22265625
6,1746313060925.6875,-171.38671875,-20.5078125,-34.66796875,77.1484375
7,1746313060929.5938,-162.109375,-14.16015625,-40.0390625,101.5625
8,1746313060933.5,-155.2734375,-38.57421875,-14.16015625,87.40234375
9,1746313060937.4062,-141.6015625,-49.8046875,-38.57421875,95.703125
10,1746313060941.3125,-98.14453125,-41.50390625,-49.31640625,109.86328125
11,1746313060945.2188,-145.5078125,-43.9453125,-27.83203125,86.9140625
0,1746313060949.125,-215.8203125,-41.50390625,-28.80859375,79.1015625
1,1746313060953.0312,-202.1484375,-19.53125,-46.38671875,105.46875
2,1746313060956.9375,-207.51953125,-24.4140625,-40.52734375,84.47265625
3,1746313060960.8438,-237.3046875,-9.765625,-31.25,37.109375
4,1746313060964.75,-264.16015625,10.25390625,-36.62109375,33.203125
5,1746313060968.6562,-210.44921875,-12.6953125,-23.4375,84.9609375
6,1746313060972.5625,-184.08203125,7.8125,-19.04296875,88.37890625
7,1746313060976.4688,-204.1015625,-30.2734375,-26.3671875,83.984375
8,1746313060980.375,-127.9296875,-60.05859375,-30.2734375,113.28125
9,1746313060984.2812,-137.20703125,-28.80859375,-20.5078125,133.30078125
10,1746313060988.1875,-173.33984375,-20.99609375,-17.578125,147.4609375
11,1746313060992.0938,-174.8046875,-59.08203125,-12.20703125,102.5390625
0,1746313060996,-227.5390625,-111.81640625,-0.9765625,101.07421875
1,1746313060999.9062,-238.28125,-69.82421875,-25.390625,122.0703125
2,1746313061003.8125,-199.70703125,2.44140625,-38.57421875,87.40234375
3,1746313061007.7188,-183.59375,9.765625,-24.90234375,118.65234375
4,1746313061011.625,-127.9296875,-13.671875,-30.76171875,142.578125
5,1746313061015.5312,-123.046875,-10.7421875,-31.73828125,142.578125
6,1746313061019.4375,-133.7890625,-28.3203125,-28.80859375,96.6796875
7,1746313061023.3438,-104.98046875,-49.8046875,-36.62109375,79.1015625
8,1746313061027.25,-143.5546875,-35.64453125,-23.4375,44.43359375
9,1746313061031.1562,-160.64453125,-22.4609375,-26.85546875,39.0625
10,1746313061035.0625,-125,-3.90625,-63.4765625,84.47265625
11,1746313061038.9688,-124.51171875,-17.08984375,-56.15234375,69.82421875
0,1746313061042.875,-66.40625,-41.015625,-28.80859375,62.5
1,1746313061046.7812,-96.19140625,-40.0390625,-31.25,29.296875
2,1746313061050.6875,-167.48046875,-21.484375,-42.96875,32.2265625
3,1746313061054.5938,-213.37890625,18.06640625,-51.7578125,5.859375
4,1746313061058.5,-223.6328125,-3.41796875,-45.41015625,-33.69140625
5,1746313061062.4062,-147.94921875,-79.58984375,-49.8046875,-2.44140625
6,1746313061066.3125,-190.91796875,-40.0390625,-57.6171875,16.11328125
7,1746313061070.2188,-200.1953125,-24.90234375,-21.97265625,-11.23046875
8,1746313061074.125,-189.94140625,-76.66015625,-16.6015625,-50.29296875
9,1746313061078.0312,-254.8828125,-28.3203125,-30.2734375,-46.875
10,1746313061081.9375,-263.18359375,-8.7890625,-28.3203125,-25.390625
11,1746313061085.8438,-216.30859375,-35.64453125,-44.43359375,44.921875
0,1746313061089.75,-195.80078125,-12.20703125,-43.9453125,6.34765625
1,1746313061093.6562,-212.890625,20.01953125,-49.31640625,-88.8671875
2,1746313061097.5625,-175.29296875,32.2265625,-54.6875,21.97265625
3,1746313061101.4688,-99.12109375,4.8828125,-43.9453125,54.19921875
4,1746313061105.375,-97.16796875,-16.11328125,-48.33984375,-20.5078125
5,1746313061109.2812,-154.78515625,8.7890625,-56.640625,-13.671875
6,1746313061113.1875,-179.6875,-11.23046875,-41.9921875,18.06640625
7,1746313061117.0938,-89.35546875,5.859375,-43.9453125,2.44140625
8,1746313061121,-58.10546875,20.5078125,-59.5703125,-29.296875
9,1746313061124.9062,-42.48046875,-16.11328125,-42.96875,-3.41796875
10,1746313061128.8125,-73.2421875,-8.7890625,-32.71484375,-11.23046875
11,1746313061132.7188,-154.296875,-4.39453125,-38.57421875,30.76171875
0,1746313061136.625,-46.38671875,-40.52734375,-27.83203125,133.30078125
1,1746313061140.5312,9.765625,-39.0625,-12.20703125,139.16015625
2,1746313061144.4375,-10.25390625,-35.15625,-11.71875,145.5078125
3,1746313061148.3438,-17.578125,-17.08984375,-14.16015625,194.82421875
4,1746313061152.25,-43.9453125,22.94921875,-34.66796875,208.0078125
5,1746313061156.1562,-23.92578125,43.45703125,-44.921875,180.6640625
6,1746313061160.0625,9.765625,56.15234375,-32.2265625,116.69921875
7,1746313061163.9688,26.3671875,9.765625,-21.97265625,133.30078125
8,1746313061167.875,75.1953125,-19.04296875,-11.71875,180.17578125
9,1746313061171.7812,17.578125,10.25390625,-20.01953125,146.97265625
10,1746313061175.6875,-20.5078125,28.3203125,-30.2734375,132.32421875
11,1746313061179.5938,29.78515625,8.7890625,-20.5078125,179.6875
0,1746313061183.5,102.5390625,27.83203125,-14.16015625,212.890625
1,1746313061187.4062,108.3984375,39.0625,0,165.52734375
2,1746313061191.3125,33.203125,42.48046875,-5.859375,83.984375
3,1746313061195.2188,21.97265625,3.90625,-28.80859375,85.44921875
4,1746313061199.125,61.03515625,17.08984375,-28.80859375,144.53125
5,1746313061203.0312,81.0546875,45.41015625,-9.765625,167.96875
6,1746313061206.9375,26.85546875,-0.9765625,8.7890625,179.6875
7,1746313061210.8438,58.10546875,18.06640625,-0.9765625,208.0078125
8,1746313061214.75,94.7265625,23.4375,17.08984375,187.5
9,1746313061218.6562,122.0703125,39.0625,69.82421875,213.37890625
10,1746313061222.5625,192.87109375,87.40234375,78.125,295.8984375
11,1746313061226.4688,93.26171875,69.82421875,77.1484375,286.1328125
0,1746313061230.375,37.109375,66.40625,78.61328125,227.5390625
1,1746313061234.2812,21.97265625,40.52734375,63.96484375,274.90234375
2,1746313061238.1875,-3.90625,39.0625,44.43359375,274.4140625
3,1746313061242.0938,4.8828125,47.36328125,41.50390625,209.9609375
4,1746313061246,34.1796875,7.8125,41.50390625,279.296875
5,1746313061249.9062,-10.7421875,18.5546875,28.80859375,273.4375
6,1746313061253.8125,-37.59765625,-7.8125,46.38671875,233.3984375
7,1746313061257.7188,-23.4375,1.953125,3.90625,281.73828125
8,1746313061261.625,-59.08203125,49.31640625,-18.06640625,207.03125
9,1746313061265.5312,-70.3125,35.15625,29.78515625,172.36328125
10,1746313061269.4375,-22.4609375,-33.69140625,46.38671875,190.4296875
11,1746313061273.3438,-15.13671875,-23.92578125,2.9296875,179.19921875
0,1746313061277.25,-60.05859375,10.25390625,-7.8125,205.56640625
1,1746313061281.1562,-48.33984375,7.8125,18.5546875,192.3828125
2,1746313061285.0625,1.953125,6.8359375,-6.34765625,115.72265625
3,1746313061288.9688,2.9296875,-7.8125,-37.109375,134.765625
4,1746313061292.875,-58.10546875,-18.5546875,-31.73828125,104.4921875
5,1746313061296.7812,-64.94140625,-0.9765625,-23.4375,93.26171875
6,1746313061300.6875,-43.45703125,-15.625,-20.01953125,182.12890625
7,1746313061304.5938,-47.8515625,-70.80078125,-21.484375,174.8046875
8,1746313061308.5,-50.78125,-59.5703125,-19.53125,126.46484375
9,1746313061312.4062,-82.51953125,-59.08203125,-16.6015625,79.1015625
10,1746313061316.3125,-53.22265625,-36.1328125,-18.5546875,68.84765625
11,1746313061320.2188,-20.5078125,9.27734375,-36.62109375,81.0546875
0,1746313061324.125,-115.234375,-6.34765625,-54.6875,93.26171875
1,1746313061328.0312,-147.94921875,-55.17578125,-33.203125,109.86328125
2,1746313061331.9375,-101.07421875,-62.5,-29.296875,83.0078125
3,1746313061335.8438,-53.7109375,-40.52734375,-35.64453125,54.6875
4,1746313061339.75,-22.94921875,-39.0625,-46.875,58.10546875
5,1746313061343.6562,-22.94921875,-64.453125,-42.48046875,65.91796875
6,1746313061347.5625,-62.01171875,-86.42578125,-23.4375,77.63671875
7,1746313061351.4688,-89.84375,-49.31640625,-31.73828125,57.12890625
8,1746313061355.375,-128.41796875,-22.4609375,-40.0390625,70.80078125
9,1746313061359.2812,-138.671875,-26.3671875,-37.59765625,65.91796875
10,1746313061363.1875,-92.28515625,-39.55078125,-21.97265625,13.671875
11,1746313061367.0938,-73.73046875,-88.37890625,-37.59765625,27.34375
0,1746313061371,-159.66796875,-39.0625,-60.546875,44.921875
1,1746313061374.9062,-164.55078125,0,-47.8515625,62.5
2,1746313061378.8125,-72.75390625,-24.90234375,-33.69140625,51.7578125
3,1746313061382.7188,-103.515625,-24.90234375,-29.78515625,-3.90625
4,1746313061386.625,-165.52734375,-44.43359375,-56.640625,23.4375
5,1746313061390.5312,-112.3046875,-38.0859375,-59.5703125,84.47265625
6,1746313061394.4375,-58.59375,-31.73828125,-40.0390625,38.57421875
7,1746313061398.3438,-121.58203125,-55.17578125,-43.9453125,34.1796875
8,1746313061402.25,-160.15625,-77.1484375,-45.41015625,54.19921875
9,1746313061406.1562,-101.07421875,-43.9453125,-22.94921875,59.5703125
10,1746313061410.0625,-126.953125,-26.3671875,-26.85546875,82.03125
11,1746313061413.9688,-154.78515625,-23.92578125,-50.78125,22.4609375
0,1746313061417.875,-121.58203125,3.41796875,-35.15625,50.78125
1,1746313061421.7812,-149.90234375,13.671875,-31.25,110.3515625
2,1746313061425.6875,-155.76171875,-2.9296875,-34.1796875,98.6328125
3,1746313061429.5938,-121.09375,-28.3203125,-17.08984375,104.4921875
4,1746313061433.5,-91.30859375,-19.04296875,-21.484375,53.22265625
5,1746313061437.4062,-102.05078125,-12.20703125,-28.80859375,26.85546875
6,1746313061441.3125,-145.5078125,-19.04296875,-16.6015625,45.8984375
7,1746313061445.2188,-107.421875,-12.6953125,-16.11328125,68.84765625
8,1746313061449.125,-98.14453125,-16.11328125,-13.18359375,73.2421875
9,1746313061453.0312,-86.42578125,-15.625,-1.46484375,37.109375
10,1746313061456.9375,-62.5,-19.04296875,-2.9296875,55.6640625
11,1746313061460.8438,-100.09765625,-21.484375,-20.5078125,71.77734375
0,1746313061464.75,-83.0078125,-46.38671875,-34.66796875,73.2421875
1,1746313061468.6562,-39.55078125,-75.68359375,-25.87890625,110.3515625
2,1746313061472.5625,-49.8046875,-46.875,-2.9296875,93.26171875
3,1746313061476.4688,-51.7578125,-3.41796875,-16.6015625,64.453125
4,1746313061480.375,-81.0546875,11.23046875,-32.2265625,92.28515625
5,1746313061484.2812,-43.45703125,21.484375,-29.296875,78.61328125
6,1746313061488.1875,-38.57421875,22.4609375,-22.94921875,73.2421875
7,1746313061492.0938,-143.5546875,-1.46484375,-27.83203125,101.07421875
8,1746313061496,-123.53515625,-39.55078125,-26.85546875,99.609375
9,1746313061499.9062,-102.5390625,-54.19921875,-21.97265625,85.44921875
10,1746313061503.8125,-103.02734375,-34.1796875,-26.85546875,104.4921875
11,1746313061507.7188,-42.96875,-21.97265625,-30.2734375,73.2421875
0,1746313061511.625,-27.34375,-19.53125,-32.71484375,22.94921875
1,1746313061515.5312,-18.06640625,-20.5078125,-30.76171875,20.99609375
2,1746313061519.4375,-26.85546875,-45.41015625,-15.625,77.1484375
3,1746313061523.3438,-59.08203125,-47.36328125,-11.71875,113.76953125
4,1746313061527.25,-62.01171875,-32.71484375,-16.6015625,108.88671875
5,1746313061531.1562,-56.640625,-45.8984375,-16.11328125,65.91796875
6,1746313061535.0625,-1.953125,-34.1796875,-12.20703125,48.828125
7,1746313061538.9688,-7.8125,-15.13671875,-18.06640625,63.4765625
8,1746313061542.875,-94.7265625,-9.765625,-20.99609375,70.3125
9,1746313061546.7812,-103.02734375,-10.7421875,-14.6484375,76.66015625
10,1746313061550.6875,-9.27734375,-25.87890625,-19.53125,83.984375
11,1746313061554.5938,-43.9453125,-20.99609375,-25.87890625,114.2578125
0,1746313061558.5,-85.9375,-17.08984375,-16.6015625,91.30859375
1,1746313061562.4062,-54.6875,-37.109375,-10.7421875,116.2109375
2,1746313061566.3125,-75.1953125,-43.9453125,-16.6015625,129.39453125
3,1746313061570.2188,-40.52734375,-35.64453125,-20.01953125,118.1640625
4,1746313061574.125,-55.6640625,-31.25,-20.01953125,81.0546875
5,1746313061578.0312,-84.47265625,-20.5078125,-30.76171875,60.546875
6,1746313061581.9375,-86.42578125,-24.90234375,-26.3671875,68.359375
7,1746313061585.8438,-48.33984375,-34.1796875,-20.99609375,75.1953125
8,1746313061589.75,-40.0390625,-40.52734375,-30.76171875,84.9609375
9,1746313061593.6562,-118.65234375,-39.0625,-27.34375,81.0546875
10,1746313061597.5625,-96.6796875,-25.390625,-18.06640625,58.10546875
11,1746313061601.4688,-44.921875,-18.06640625,-20.99609375,67.87109375
0,1746313061605.375,-49.31640625,-21.484375,-31.73828125,81.54296875
1,1746313061609.2812,-72.265625,-35.15625,-33.69140625,76.66015625
2,1746313061613.1875,-49.8046875,-52.24609375,-31.73828125,67.87109375
3,1746313061617.0938,-22.94921875,-65.4296875,-31.73828125,21.484375
4,1746313061621,-65.4296875,-77.63671875,-27.34375,39.55078125
5,1746313061624.9062,-54.19921875,-63.96484375,-6.34765625,83.984375
6,1746313061628.8125,-52.734375,-0.48828125,-7.32421875,37.59765625
7,1746313061632.7188,-104.4921875,20.5078125,-27.83203125,37.59765625
8,1746313061636.625,-115.234375,-9.27734375,-29.296875,57.12890625
9,1746313061640.5312,-80.078125,-18.5546875,-31.25,22.94921875
10,1746313061644.4375,-37.59765625,-26.85546875,-26.85546875,37.59765625
11,1746313061648.3438,-27.83203125,-39.0625,-24.4140625,60.546875
0,1746313061652.25,-52.734375,-14.16015625,-32.71484375,61.03515625
1,1746313061656.1562,-57.6171875,-34.1796875,-28.80859375,43.9453125
2,1746313061660.0625,-58.59375,-54.6875,-25.390625,57.6171875
3,1746313061663.9688,-39.0625,-40.52734375,-23.92578125,77.63671875
4,1746313061667.875,-23.4375,-37.59765625,-28.80859375,45.8984375
5,1746313061671.7812,-8.7890625,-28.3203125,-22.94921875,39.55078125
6,1746313061675.6875,26.85546875,-25.390625,-7.8125,57.12890625
7,1746313061679.5938,-45.41015625,-20.01953125,-27.83203125,4.39453125
8,1746313061683.5,-127.44140625,-38.57421875,-30.76171875,-13.18359375
9,1746313061687.4062,-61.03515625,-58.59375,-19.53125,25.390625
10,1746313061691.3125,-35.64453125,-45.41015625,-28.3203125,14.16015625
11,1746313061695.2188,-78.61328125,-40.0390625,-23.92578125,34.1796875
0,1746313061699.125,-83.984375,-25.390625,-24.4140625,49.31640625
1,1746313061703.0312,-55.6640625,-37.109375,-42.48046875,20.99609375
2,1746313061706.9375,-97.16796875,-49.31640625,-37.59765625,36.1328125
3,1746313061710.8438,-134.765625,-23.4375,-17.08984375,28.80859375
4,1746313061714.75,-131.8359375,-12.20703125,-8.30078125,26.85546875
5,1746313061718.6562,-146.484375,-19.04296875,-13.18359375,42.96875
6,1746313061722.5625,-107.91015625,-21.97265625,-27.34375,30.2734375
7,1746313061726.4688,-72.265625,-14.16015625,-21.97265625,52.734375
8,1746313061730.375,-87.890625,-19.53125,-13.671875,34.1796875
9,1746313061734.2812,-67.87109375,-33.203125,-12.20703125,3.90625
10,1746313061738.1875,-75.1953125,-23.4375,-17.08984375,9.27734375
11,1746313061742.0938,-43.9453125,-14.6484375,-24.4140625,15.13671875
0,1746313061746,-61.03515625,-53.22265625,-27.83203125,40.0390625
1,1746313061749.9062,-134.765625,-76.66015625,-40.0390625,72.265625
2,1746313061753.8125,-99.12109375,-62.01171875,-36.62109375,61.03515625
3,1746313061757.7188,-81.0546875,-29.78515625,-22.94921875,32.2265625
4,1746313061761.625,-53.22265625,2.44140625,-24.4140625,23.92578125
5,1746313061765.5312,-39.55078125,16.11328125,-33.69140625,13.18359375
6,1746313061769.4375,-91.30859375,0.9765625,-26.85546875,18.5546875
7,1746313061773.3438,-121.58203125,-20.5078125,-11.71875,0.48828125
8,1746313061777.25,-72.75390625,-31.73828125,-14.16015625,15.625
9,1746313061781.1562,-61.03515625,-30.2734375,-25.87890625,46.875
10,1746313061785.0625,-75.68359375,-23.4375,-21.97265625,16.6015625
11,1746313061788.9688,-77.1484375,-16.6015625,-15.625,32.71484375
0,1746313061792.875,-95.21484375,-19.04296875,-22.94921875,16.6015625
1,1746313061796.7812,-47.36328125,-16.6015625,-30.76171875,9.765625
2,1746313061800.6875,-14.6484375,-11.23046875,-34.1796875,36.1328125
3,1746313061804.5938,-60.05859375,-32.2265625,-30.76171875,12.20703125
4,1746313061808.5,-85.9375,-42.96875,-21.97265625,24.4140625
5,1746313061812.4062,-64.453125,-38.0859375,-19.04296875,32.71484375
6,1746313061816.3125,-36.62109375,-20.99609375,-18.06640625,41.015625
7,1746313061820.2188,-64.94140625,-17.08984375,-41.50390625,38.0859375
8,1746313061824.125,-73.73046875,-5.37109375,-35.15625,20.5078125
9,1746313061828.0312,-61.03515625,-8.30078125,-7.8125,16.11328125
10,1746313061831.9375,-14.16015625,-31.25,17.08984375,64.453125
11,1746313061835.8438,-7.8125,-47.36328125,7.8125,49.8046875
0,1746313061839.75,-77.63671875,-42.48046875,-29.78515625,-2.44140625
1,1746313061843.6562,-93.75,-11.71875,-35.64453125,20.01953125
2,1746313061847.5625,-90.33203125,-3.41796875,-34.66796875,23.4375
3,1746313061851.4688,-82.03125,-16.6015625,-41.50390625,17.08984375
4,1746313061855.375,-67.3828125,-18.5546875,-33.69140625,-5.859375
5,1746313061859.2812,-42.48046875,-0.48828125,-24.4140625,16.6015625
6,1746313061863.1875,-53.7109375,2.9296875,-26.3671875,29.296875
7,1746313061867.0938,-37.59765625,-19.04296875,-26.3671875,36.62109375
8,1746313061871,5.37109375,-30.76171875,-30.76171875,56.15234375
9,1746313061874.9062,-17.08984375,-24.4140625,-9.765625,50.29296875
10,1746313061878.8125,-63.4765625,-23.92578125,1.953125,28.80859375
11,1746313061882.7188,-60.546875,-26.3671875,-18.5546875,33.203125
0,1746313061886.625,-46.875,-34.1796875,-11.71875,47.8515625
1,1746313061890.5312,-53.22265625,-30.2734375,-0.9765625,28.80859375
2,1746313061894.4375,-13.18359375,-22.4609375,-16.11328125,-23.4375
3,1746313061898.3438,-47.8515625,0.48828125,-43.45703125,-37.59765625
4,1746313061902.25,-118.65234375,-1.953125,-43.45703125,10.25390625
5,1746313061906.1562,-67.87109375,3.90625,-19.53125,43.45703125
6,1746313061910.0625,-34.1796875,3.41796875,-2.9296875,44.43359375
7,1746313061913.9688,-48.33984375,-34.1796875,-4.39453125,0
8,1746313061917.875,-70.3125,-37.109375,-22.94921875,-20.5078125
9,1746313061921.7812,-75.1953125,-26.85546875,-25.87890625,-34.66796875
10,1746313061925.6875,-64.453125,-25.87890625,-29.78515625,-34.66796875
11,1746313061929.5938,-35.15625,-13.671875,-48.33984375,-0.48828125
0,1746313061933.5,-12.6953125,-31.73828125,-31.25,17.578125
1,1746313061937.4062,41.015625,-44.921875,-22.4609375,21.97265625
2,1746313061941.3125,-6.34765625,-34.1796875,-28.3203125,43.9453125
3,1746313061945.2188,-70.80078125,-17.578125,-24.4140625,29.296875
4,1746313061949.125,-26.85546875,1.46484375,-16.6015625,-15.13671875
5,1746313061953.0312,-1.953125,-4.39453125,-11.23046875,-28.80859375
6,1746313061956.9375,-14.6484375,-22.94921875,-32.71484375,-12.6953125
7,1746313061960.8438,-31.73828125,-29.296875,-45.41015625,20.99609375
8,1746313061964.75,-31.73828125,-31.73828125,-32.71484375,15.625
9,1746313061968.6562,-33.203125,-47.36328125,-10.25390625,26.85546875
10,1746313061972.5625,-23.4375,-40.0390625,12.6953125,66.40625
11,1746313061976.4688,20.5078125,-23.4375,5.859375,39.0625
0,1746313061980.375,-22.94921875,-10.7421875,-34.1796875,-25.390625
1,1746313061984.2812,-85.44921875,0,-41.50390625,-24.90234375
2,1746313061988.1875,-49.31640625,2.44140625,-30.2734375,-2.44140625
3,1746313061992.0938,-40.52734375,-11.71875,-32.2265625,26.85546875
4,1746313061996,-44.921875,-24.90234375,-42.96875,78.61328125
5,1746313061999.9062,-33.203125,-22.94921875,-41.50390625,23.4375
6,1746313062003.8125,-20.5078125,-23.4375,-38.0859375,2.9296875
7,1746313062007.7188,-29.78515625,-16.6015625,-24.90234375,42.96875
8,1746313062011.625,-46.38671875,-10.7421875,-7.32421875,21.97265625
9,1746313062015.5312,-61.5234375,-21.484375,-11.23046875,-1.953125
10,1746313062019.4375,-52.734375,-27.83203125,-16.11328125,-12.6953125
11,1746313062023.3438,6.34765625,-11.71875,-7.32421875,12.6953125
0,1746313062027.25,-37.59765625,-11.23046875,-19.04296875,11.23046875
1,1746313062031.1562,-73.73046875,-28.3203125,-36.1328125,-17.08984375
2,1746313062035.0625,-58.59375,-22.4609375,-34.66796875,-4.8828125
3,1746313062038.9688,-90.33203125,-13.671875,-32.2265625,13.671875
4,1746313062042.875,-5.37109375,-11.23046875,-29.78515625,0
5,1746313062046.7812,0.48828125,-2.9296875,-33.69140625,15.625
6,1746313062050.6875,-89.35546875,-11.23046875,-27.34375,50.78125
7,1746313062054.5938,-94.7265625,-31.25,-13.671875,23.4375
8,1746313062058.5,-85.44921875,-22.4609375,-15.13671875,-13.18359375
9,1746313062062.4062,-74.21875,-12.6953125,-13.671875,-4.39453125
10,1746313062066.3125,-92.7734375,-16.11328125,-10.25390625,15.13671875
11,1746313062070.2188,-100.5859375,-24.90234375,-8.7890625,13.671875
0,1746313062074.125,-86.9140625,-25.87890625,-1.46484375,-19.53125
1,1746313062078.0312,-101.5625,-17.08984375,-3.41796875,-41.50390625
2,1746313062081.9375,-111.328125,-20.01953125,-7.32421875,-61.5234375
3,1746313062085.8438,-109.86328125,-25.390625,-4.39453125,-63.4765625
4,1746313062089.75,-108.88671875,-22.94921875,-4.39453125,-70.3125
5,1746313062093.6562,-109.86328125,-18.5546875,-2.9296875,-78.125
6,1746313062097.5625,-124.51171875,-16.6015625,-0.48828125,-76.66015625
7,1746313062101.4688,-116.69921875,-21.484375,-0.48828125,-95.21484375
8,1746313062105.375,-105.46875,-20.5078125,-5.859375,-94.23828125
9,1746313062109.2812,-109.375,-20.5078125,-15.13671875,-112.3046875
10,1746313062113.1875,-110.83984375,-23.4375,-17.578125,-141.6015625
11,1746313062117.0938,-97.16796875,-20.01953125,-14.6484375,-138.18359375
0,1746313062121,-102.05078125,-14.6484375,-16.6015625,-119.140625
1,1746313062124.9062,-113.76953125,-20.01953125,-9.765625,-115.234375
2,1746313062128.8125,-82.51953125,-22.4609375,-3.41796875,-121.58203125
3,1746313062132.7188,-111.328125,-19.53125,-2.44140625,-153.80859375
4,1746313062136.625,-113.28125,-20.5078125,-8.7890625,-154.296875
5,1746313062140.5312,-61.5234375,-28.3203125,-19.04296875,-162.59765625
6,1746313062144.4375,-57.12890625,-30.2734375,-17.08984375,-169.43359375
7,1746313062148.3438,-40.0390625,-24.4140625,-17.578125,-151.85546875
8,1746313062152.25,-10.25390625,-26.85546875,-18.06640625,-142.08984375
9,1746313062156.1562,-19.53125,-30.76171875,-27.34375,-148.92578125
10,1746313062160.0625,-43.9453125,-33.203125,-37.109375,-145.01953125
11,1746313062163.9688,-27.83203125,-41.015625,-25.390625,-143.06640625
0,1746313062167.875,-18.5546875,-43.45703125,-7.32421875,-118.65234375
1,1746313062171.7812,7.32421875,-33.203125,-6.34765625,-80.56640625
2,1746313062175.6875,18.06640625,-41.50390625,-23.4375,-56.640625
3,1746313062179.5938,-35.64453125,-60.05859375,-30.76171875,-63.4765625
4,1746313062183.5,-19.04296875,-56.640625,-29.296875,-79.1015625
5,1746313062187.4062,6.8359375,-51.7578125,-23.92578125,-89.84375
6,1746313062191.3125,13.18359375,-50.29296875,-21.97265625,-83.984375
7,1746313062195.2188,28.3203125,-54.19921875,-26.85546875,-62.01171875
8,1746313062199.125,39.0625,-53.22265625,-20.01953125,-55.17578125
9,1746313062203.0312,49.31640625,-66.89453125,-18.5546875,-34.66796875
10,1746313062206.9375,35.15625,-83.984375,-25.390625,1.46484375
11,1746313062210.8438,22.4609375,-82.51953125,-30.2734375,-16.6015625
0,1746313062214.75,40.0390625,-79.58984375,-34.66796875,-17.08984375
1,1746313062218.6562,41.015625,-79.1015625,-36.1328125,-4.8828125
2,1746313062222.5625,50.29296875,-80.56640625,-35.15625,-41.50390625
3,1746313062226.4688,54.6875,-84.47265625,-38.57421875,-87.40234375
4,1746313062230.375,57.6171875,-83.49609375,-36.62109375,-72.75390625
5,1746313062234.2812,82.03125,-79.58984375,-30.2734375,-1.46484375
6,1746313062238.1875,83.49609375,-79.58984375,-33.203125,34.1796875
7,1746313062242.0938,94.7265625,-81.0546875,-34.1796875,10.25390625
8,1746313062246,113.76953125,-78.61328125,-28.3203125,46.38671875
9,1746313062249.9062,97.65625,-73.73046875,-28.3203125,73.73046875
10,1746313062253.8125,112.3046875,-77.1484375,-34.66796875,62.01171875
11,1746313062257.7188,131.34765625,-76.66015625,-32.71484375,55.17578125
0,1746313062261.625,106.4453125,-66.40625,-28.80859375,41.50390625
1,1746313062265.5312,120.60546875,-60.546875,-29.78515625,61.03515625
2,1746313062269.4375,165.52734375,-63.96484375,-36.62109375,34.66796875
3,1746313062273.3438,119.62890625,-61.03515625,-37.59765625,-2.44140625
4,1746313062277.25,39.55078125,-60.546875,-32.71484375,-23.4375
5,1746313062281.1562,73.73046875,-58.59375,-32.2265625,-31.25
6,1746313062285.0625,113.76953125,-52.734375,-41.015625,-59.08203125
7,1746313062288.9688,95.703125,-50.29296875,-44.43359375,-101.5625
8,1746313062292.875,76.171875,-45.8984375,-45.41015625,-87.40234375
9,1746313062296.7812,62.98828125,-44.921875,-39.55078125,-92.7734375
10,1746313062300.6875,58.10546875,-46.38671875,-28.80859375,-144.04296875
11,1746313062304.5938,48.828125,-40.0390625,-27.83203125,-172.8515625
0,1746313062308.5,40.52734375,-35.15625,-35.15625,-168.45703125
1,1746313062312.4062,41.015625,-36.62109375,-39.55078125,-139.6484375
2,1746313062316.3125,28.80859375,-37.59765625,-36.1328125,-142.578125
3,1746313062320.2188,37.59765625,-42.48046875,-35.15625,-190.91796875
4,1746313062324.125,4.8828125,-45.8984375,-31.25,-207.03125
5,1746313062328.0312,-7.32421875,-46.38671875,-35.64453125,-181.15234375
6,1746313062331.9375,4.8828125,-46.38671875,-41.015625,-154.78515625
7,1746313062335.8438,-11.23046875,-38.0859375,-35.64453125,-172.8515625
8,1746313062339.75,-14.6484375,-36.1328125,-35.15625,-189.94140625
9,1746313062343.6562,-7.8125,-42.48046875,-34.66796875,-152.34375
10,1746313062347.5625,-3.90625,-41.9921875,-30.76171875,-139.16015625
11,1746313062351.4688,-13.671875,-37.109375,-29.296875,-165.0390625
0,1746313062355.375,-13.671875,-33.69140625,-26.85546875,-164.0625
1,1746313062359.2812,-17.578125,-38.0859375,-29.78515625,-176.7578125
2,1746313062363.1875,-9.27734375,-37.59765625,-33.69140625,-178.7109375
3,1746313062367.0938,16.11328125,-34.1796875,-30.2734375,-155.2734375
4,1746313062371,2.9296875,-43.9453125,-30.2734375,-173.828125
5,1746313062374.9062,-4.39453125,-39.55078125,-40.0390625,-182.6171875
6,1746313062378.8125,-0.48828125,-31.25,-37.59765625,-179.19921875
7,1746313062382.7188,-4.8828125,-37.109375,-32.71484375,-213.8671875
8,1746313062386.625,11.23046875,-42.96875,-35.64453125,-217.7734375
9,1746313062390.5312,3.41796875,-49.8046875,-43.45703125,-208.0078125
10,1746313062394.4375,-30.2734375,-59.5703125,-52.734375,-207.51953125
11,1746313062398.3438,-14.16015625,-54.6875,-50.29296875,-213.8671875
0,1746313062402.25,-2.9296875,-53.22265625,-51.7578125,-195.80078125
1,1746313062406.1562,-8.30078125,-61.03515625,-61.5234375,-230.46875
2,1746313062410.0625,3.41796875,-61.03515625,-69.82421875,-326.66015625
3,1746313062413.9688,-15.625,-63.4765625,-64.94140625,-328.125
4,1746313062417.875,-22.94921875,-66.40625,-59.08203125,-308.10546875
5,1746313062421.7812,-25.87890625,-69.3359375,-62.01171875,-310.05859375
6,1746313062425.6875,-23.92578125,-67.3828125,-68.84765625,-314.453125
7,1746313062429.5938,-41.9921875,-66.40625,-67.3828125,-335.9375
8,1746313062433.5,-4.39453125,-67.3828125,-62.5,-301.26953125
9,1746313062437.4062,13.18359375,-67.3828125,-59.5703125,-279.296875
10,1746313062441.3125,-18.06640625,-64.453125,-52.734375,-302.734375
11,1746313062445.2188,-15.13671875,-55.17578125,-57.12890625,-297.36328125
0,1746313062449.125,-5.859375,-48.33984375,-62.01171875,-306.15234375
1,1746313062453.0312,-3.90625,-54.6875,-52.734375,-303.7109375
2,1746313062456.9375,2.44140625,-67.87109375,-44.921875,-292.96875
3,1746313062460.8438,27.34375,-67.87109375,-49.31640625,-290.52734375
4,1746313062464.75,34.1796875,-59.5703125,-51.26953125,-278.3203125
5,1746313062468.6562,63.96484375,-54.6875,-54.19921875,-270.01953125
6,1746313062472.5625,53.22265625,-52.24609375,-60.546875,-265.625
7,1746313062476.4688,0,-51.7578125,-46.875,-268.5546875
8,1746313062480.375,-0.9765625,-51.7578125,-35.15625,-264.16015625
9,1746313062484.2812,-1.46484375,-49.8046875,-36.62109375,-230.95703125
10,1746313062488.1875,22.94921875,-44.921875,-38.0859375,-204.1015625
11,1746313062492.0938,40.0390625,-39.0625,-35.15625,-207.03125
0,1746313062496,24.4140625,-38.0859375,-35.15625,-209.47265625
1,1746313062499.9062,13.18359375,-41.9921875,-33.69140625,-191.40625
2,1746313062503.8125,-24.90234375,-42.96875,-30.2734375,-180.6640625
3,1746313062507.7188,-28.80859375,-43.45703125,-35.64453125,-177.24609375
4,1746313062511.625,-1.953125,-42.48046875,-39.0625,-164.55078125
5,1746313062515.5312,10.7421875,-35.15625,-39.55078125,-156.73828125
6,1746313062519.4375,7.32421875,-37.109375,-42.48046875,-138.671875
7,1746313062523.3438,0.9765625,-43.45703125,-38.57421875,-136.23046875
8,1746313062527.25,10.7421875,-48.33984375,-37.59765625,-155.2734375
9,1746313062531.1562,4.39453125,-42.96875,-40.52734375,-135.7421875
10,1746313062535.0625,-13.18359375,-39.0625,-44.921875,-135.7421875
11,1746313062538.9688,2.9296875,-38.0859375,-43.9453125,-126.46484375
0,1746313062542.875,-0.9765625,-37.109375,-41.50390625,-98.6328125
1,1746313062546.7812,-10.7421875,-36.62109375,-40.0390625,-114.74609375
2,1746313062550.6875,6.34765625,-27.34375,-43.45703125,-97.16796875
3,1746313062554.5938,-6.34765625,-33.203125,-47.36328125,-73.73046875
4,1746313062558.5,-5.859375,-40.52734375,-39.0625,-104.4921875
5,1746313062562.4062,-5.37109375,-35.64453125,-29.78515625,-119.140625
6,1746313062566.3125,-10.7421875,-36.62109375,-26.85546875,-79.58984375
7,1746313062570.2188,3.90625,-30.76171875,-29.296875,-48.33984375
8,1746313062574.125,1.46484375,-27.83203125,-33.203125,-62.98828125
9,1746313062578.0312,-13.18359375,-37.59765625,-41.50390625,-95.703125
10,1746313062581.9375,-22.94921875,-39.0625,-45.8984375,-92.7734375
11,1746313062585.8438,-8.7890625,-33.69140625,-40.52734375,-75.1953125
0,1746313062589.75,-7.32421875,-29.78515625,-34.66796875,-96.19140625
1,1746313062593.6562,-31.25,-27.34375,-33.203125,-121.58203125
2,1746313062597.5625,-24.4140625,-29.78515625,-33.69140625,-115.234375
3,1746313062601.4688,5.859375,-36.1328125,-32.2265625,-90.8203125
4,1746313062605.375,-21.484375,-35.15625,-35.15625,-94.23828125
5,1746313062609.2812,-28.80859375,-28.3203125,-46.38671875,-120.1171875
6,1746313062613.1875,-10.7421875,-26.85546875,-50.78125,-129.39453125
7,1746313062617.0938,-22.94921875,-33.69140625,-29.296875,-100.09765625
8,1746313062621,-17.578125,-36.1328125,-26.3671875,-91.30859375
9,1746313062624.9062,-14.16015625,-36.1328125,-33.69140625,-123.046875
10,1746313062628.8125,-39.55078125,-40.0390625,-30.76171875,-108.88671875
11,1746313062632.7188,-48.33984375,-37.109375,-31.25,-95.703125
0,1746313062636.625,-13.18359375,-34.66796875,-30.2734375,-112.79296875
1,1746313062640.5312,-34.66796875,-35.64453125,-30.2734375,-103.02734375
2,1746313062644.4375,-47.36328125,-30.76171875,-33.203125,-86.42578125
3,1746313062648.3438,-30.76171875,-36.1328125,-39.55078125,-90.8203125
4,1746313062652.25,-19.53125,-36.62109375,-36.62109375,-93.26171875
5,1746313062656.1562,-25.390625,-28.80859375,-35.15625,-95.703125
6,1746313062660.0625,-21.484375,-31.25,-34.66796875,-144.04296875
7,1746313062663.9688,-12.20703125,-39.55078125,-33.69140625,-165.52734375
8,1746313062667.875,-14.16015625,-38.57421875,-37.109375,-157.71484375
9,1746313062671.7812,-8.30078125,-35.64453125,-35.64453125,-176.26953125
10,1746313062675.6875,-7.8125,-33.69140625,-42.48046875,-194.82421875
11,1746313062679.5938,-25.390625,-34.1796875,-42.96875,-181.15234375
0,1746313062683.5,-15.625,-35.64453125,-32.71484375,-150.87890625
1,1746313062687.4062,-8.7890625,-31.25,-32.71484375,-147.94921875
2,1746313062691.3125,-13.18359375,-34.66796875,-33.203125,-150.87890625
3,1746313062695.2188,-23.4375,-36.1328125,-31.25,-167.96875
4,1746313062699.125,-29.78515625,-31.73828125,-38.57421875,-142.578125
5,1746313062703.0312,-24.90234375,-31.73828125,-41.015625,-111.81640625
6,1746313062706.9375,-28.80859375,-32.2265625,-39.55078125,-116.2109375
7,1746313062710.8438,-23.92578125,-36.62109375,-42.96875,-122.55859375
8,1746313062714.75,-20.01953125,-37.109375,-36.62109375,-113.76953125
9,1746313062718.6562,-24.90234375,-36.1328125,-31.25,-99.609375
10,1746313062722.5625,-10.7421875,-36.62109375,-36.62109375,-115.72265625
11,1746313062726.4688,-1.953125,-35.64453125,-35.15625,-108.3984375
0,1746313062730.375,0,-35.64453125,-30.76171875,-91.796875
1,1746313062734.2812,0.9765625,-32.2265625,-28.80859375,-75.1953125
2,1746313062738.1875,-16.11328125,-35.64453125,-32.2265625,-72.75390625
3,1746313062742.0938,-25.87890625,-36.1328125,-37.109375,-81.0546875
4,1746313062746,-23.92578125,-36.62109375,-39.55078125,-92.28515625
5,1746313062749.9062,-27.34375,-40.0390625,-42.48046875,-100.09765625
6,1746313062753.8125,-28.80859375,-42.96875,-39.0625,-79.58984375
7,1746313062757.7188,-34.66796875,-39.0625,-35.64453125,-67.3828125
8,1746313062761.625,-32.2265625,-34.1796875,-34.66796875,-75.68359375
9,1746313062765.5312,-25.390625,-40.0390625,-36.1328125,-62.5
10,1746313062769.4375,-16.6015625,-38.57421875,-34.66796875,-42.96875
11,1746313062773.3438,-20.01953125,-33.203125,-33.203125,-75.68359375
0,1746313062777.25,-27.34375,-37.109375,-34.66796875,-65.91796875
1,1746313062781.1562,-13.671875,-38.57421875,-37.109375,-48.828125
2,1746313062785.0625,-19.04296875,-37.59765625,-37.109375,-78.125
3,1746313062788.9688,-32.71484375,-35.64453125,-34.1796875,-75.1953125
4,1746313062792.875,-40.0390625,-37.109375,-37.109375,-67.3828125
5,1746313062796.7812,-32.2265625,-35.64453125,-40.0390625,-69.3359375
6,1746313062800.6875,-25.87890625,-27.34375,-37.109375,-63.96484375
7,1746313062804.5938,-32.2265625,-23.92578125,-35.64453125,-68.359375
8,1746313062808.5,-28.80859375,-29.296875,-36.1328125,-75.68359375
9,1746313062812.4062,-26.85546875,-30.2734375,-32.2265625,-77.63671875
10,1746313062816.3125,-34.66796875,-27.34375,-28.3203125,-72.265625
11,1746313062820.2188,-27.34375,-24.90234375,-22.94921875,-55.6640625
0,1746313062824.125,-16.6015625,-21.97265625,-24.4140625,-65.4296875
1,1746313062828.0312,-29.296875,-25.87890625,-30.2734375,-66.89453125
2,1746313062831.9375,-22.94921875,-28.3203125,-28.80859375,-70.80078125
3,1746313062835.8438,-25.390625,-31.25,-29.78515625,-100.09765625
4,1746313062839.75,-32.71484375,-30.76171875,-28.80859375,-92.7734375
5,1746313062843.6562,-31.25,-31.73828125,-32.71484375,-100.5859375
6,1746313062847.5625,-3.90625,-33.69140625,-33.203125,-106.93359375
7,1746313062851.4688,-5.859375,-28.80859375,-31.25,-74.70703125
8,1746313062855.375,-68.359375,-30.2734375,-26.3671875,-80.078125
9,1746313062859.2812,-59.5703125,-36.62109375,-20.5078125,-94.23828125
10,1746313062863.1875,-30.2734375,-38.0859375,-23.92578125,-107.421875
11,1746313062867.0938,-34.1796875,-34.1796875,-31.25,-114.74609375
0,1746313062871,-28.3203125,-29.78515625,-30.2734375,-98.14453125
1,1746313062874.9062,-20.5078125,-30.2734375,-27.83203125,-96.19140625
2,1746313062878.8125,-44.43359375,-34.66796875,-37.59765625,-89.35546875
3,1746313062882.7188,-37.59765625,-31.25,-36.1328125,-81.0546875
4,1746313062886.625,-9.765625,-25.87890625,-25.390625,-91.30859375
5,1746313062890.5312,-23.92578125,-27.34375,-26.85546875,-89.84375
6,1746313062894.4375,-20.5078125,-30.2734375,-28.3203125,-80.56640625
7,1746313062898.3438,-18.5546875,-32.2265625,-24.90234375,-68.84765625
8,1746313062902.25,-37.109375,-32.71484375,-28.3203125,-66.89453125
9,1746313062906.1562,-41.015625,-31.73828125,-31.25,-93.26171875
10,1746313062910.0625,-44.921875,-30.2734375,-25.87890625,-103.515625
11,1746313062913.9688,-34.66796875,-31.25,-24.4140625,-92.28515625
0,1746313062917.875,-34.66796875,-36.1328125,-26.3671875,-88.37890625
1,1746313062921.7812,-44.43359375,-35.64453125,-30.2734375,-99.12109375
2,1746313062925.6875,-40.0390625,-33.69140625,-33.69140625,-104.00390625
3,1746313062929.5938,-39.0625,-34.1796875,-31.25,-95.21484375
4,1746313062933.5,-31.73828125,-32.2265625,-32.71484375,-92.28515625
5,1746313062937.4062,-28.3203125,-31.25,-29.296875,-91.30859375
6,1746313062941.3125,-32.2265625,-30.2734375,-28.80859375,-87.40234375
7,1746313062945.2188,-31.25,-33.69140625,-32.2265625,-77.63671875
8,1746313062949.125,-32.71484375,-30.2734375,-24.90234375,-82.51953125
9,1746313062953.0312,-40.52734375,-29.78515625,-23.92578125,-61.5234375
10,1746313062956.9375,-45.41015625,-33.69140625,-28.3203125,-48.828125
11,1746313062960.8438,-35.64453125,-33.203125,-26.85546875,-70.3125
0,1746313062964.75,-25.390625,-31.25,-25.390625,-58.59375
1,1746313062968.6562,-21.484375,-30.76171875,-30.2734375,-57.6171875
2,1746313062972.5625,-36.1328125,-31.73828125,-36.1328125,-76.66015625
3,1746313062976.4688,-55.6640625,-30.2734375,-38.0859375,-72.265625
4,1746313062980.375,-49.31640625,-33.203125,-38.0859375,-68.359375
5,1746313062984.2812,-36.62109375,-39.55078125,-36.1328125,-72.75390625
6,1746313062988.1875,-26.85546875,-38.0859375,-31.25,-72.265625
7,1746313062992.0938,-36.62109375,-38.0859375,-29.78515625,-76.171875
8,1746313062996,-44.43359375,-39.55078125,-30.76171875,-60.546875
9,1746313062999.9062,-39.55078125,-33.69140625,-29.296875,-44.921875
10,1746313063003.8125,-33.203125,-32.2265625,-32.71484375,-53.7109375
11,1746313063007.7188,-44.43359375,-32.71484375,-35.15625,-74.70703125
0,1746313063011.625,-15.13671875,-30.76171875,-33.69140625,-83.0078125
1,1746313063015.5312,-11.71875,-33.203125,-29.78515625,-69.82421875
2,1746313063019.4375,-49.31640625,-32.71484375,-31.25,-56.640625
3,1746313063023.3438,-39.55078125,-35.64453125,-34.66796875,-61.5234375
4,1746313063027.25,-23.4375,-33.203125,-35.15625,-58.10546875
5,1746313063031.1562,-15.625,-29.78515625,-35.64453125,-54.6875
6,1746313063035.0625,-34.1796875,-35.64453125,-35.15625,-74.70703125
7,1746313063038.9688,-44.921875,-37.59765625,-36.62109375,-71.2890625
8,1746313063042.875,-44.43359375,-37.59765625,-35.15625,-78.125
9,1746313063046.7812,-30.2734375,-34.1796875,-29.296875,-77.1484375
10,1746313063050.6875,-20.99609375,-33.203125,-30.76171875,-51.7578125
11,1746313063054.5938,-46.38671875,-34.66796875,-33.203125,-63.96484375
0,1746313063058.5,-44.921875,-38.57421875,-31.25,-90.8203125
1,1746313063062.4062,-30.76171875,-39.55078125,-32.2265625,-66.89453125
2,1746313063066.3125,-31.25,-30.76171875,-33.69140625,-59.5703125
3,1746313063070.2188,-28.3203125,-30.76171875,-33.69140625,-84.9609375
4,1746313063074.125,-31.73828125,-34.66796875,-36.1328125,-88.8671875
5,1746313063078.0312,-25.390625,-35.64453125,-39.55078125,-88.8671875
6,1746313063081.9375,-21.484375,-34.1796875,-39.55078125,-108.88671875
7,1746313063085.8438,-28.3203125,-27.83203125,-30.76171875,-109.86328125
8,1746313063089.75,-27.34375,-27.83203125,-28.80859375,-88.37890625
9,1746313063093.6562,-46.38671875,-31.73828125,-33.69140625,-88.37890625
10,1746313063097.5625,-45.41015625,-32.71484375,-31.25,-92.28515625
11,1746313063101.4688,-22.4609375,-33.69140625,-29.296875,-103.02734375
0,1746313063105.375,-25.390625,-34.66796875,-28.80859375,-108.3984375
1,1746313063109.2812,-43.45703125,-36.62109375,-28.80859375,-100.09765625
2,1746313063113.1875,-58.10546875,-36.1328125,-31.73828125,-83.49609375
3,1746313063117.0938,-33.69140625,-33.69140625,-31.73828125,-67.87109375
4,1746313063121,-101.5625,-33.203125,-29.78515625,-78.61328125
5,1746313063124.9062,-226.07421875,-30.2734375,-36.62109375,-86.42578125
6,1746313063128.8125,-215.33203125,-31.73828125,-39.55078125,-84.47265625
7,1746313063132.7188,-174.8046875,-35.64453125,-36.62109375,-83.984375
8,1746313063136.625,-154.296875,-37.59765625,-36.1328125,-77.1484375
9,1746313063140.5312,-114.2578125,-42.48046875,-40.0390625,-89.84375
10,1746313063144.4375,-76.171875,-43.45703125,-43.45703125,-105.46875
11,1746313063148.3438,-74.70703125,-42.48046875,-36.1328125,-73.73046875
0,1746313063152.25,-62.01171875,-44.43359375,-38.57421875,-74.21875
1,1746313063156.1562,-53.7109375,-41.50390625,-41.015625,-93.26171875
2,1746313063160.0625,-42.48046875,-35.15625,-38.0859375,-92.28515625
3,1746313063163.9688,-19.53125,-30.2734375,-36.62109375,-102.5390625
4,1746313063167.875,-9.27734375,-34.1796875,-33.69140625,-73.2421875
5,1746313063171.7812,-10.7421875,-37.59765625,-37.109375,-73.73046875
6,1746313063175.6875,-16.11328125,-35.64453125,-39.0625,-100.09765625
7,1746313063179.5938,-21.484375,-35.64453125,-38.0859375,-83.49609375
8,1746313063183.5,-3.90625,-35.64453125,-36.62109375,-71.77734375
9,1746313063187.4062,5.859375,-36.62109375,-32.71484375,-62.01171875
10,1746313063191.3125,-2.44140625,-37.109375,-33.203125,-57.12890625
11,1746313063195.2188,46.38671875,-36.1328125,-33.203125,-62.98828125
0,1746313063199.125,-31.25,-36.1328125,-27.83203125,-87.890625
1,1746313063203.0312,-81.54296875,-36.62109375,-27.83203125,-92.7734375
2,1746313063206.9375,-20.99609375,-35.15625,-34.66796875,-77.63671875
3,1746313063210.8438,-24.90234375,-35.15625,-36.1328125,-81.54296875
4,1746313063214.75,-27.83203125,-35.64453125,-32.71484375,-85.44921875
5,1746313063218.6562,-20.99609375,-32.71484375,-32.2265625,-71.2890625
6,1746313063222.5625,-20.01953125,-31.25,-31.73828125,-70.3125
7,1746313063226.4688,-30.2734375,-30.76171875,-28.3203125,-81.54296875
8,1746313063230.375,-19.04296875,-32.2265625,-24.4140625,-67.87109375
9,1746313063234.2812,-30.76171875,-33.69140625,-29.296875,-54.6875
10,1746313063238.1875,-35.15625,-28.3203125,-30.76171875,-65.4296875
11,1746313063242.0938,-26.3671875,-32.2265625,-29.296875,-73.73046875
0,1746313063246,-32.2265625,-35.15625,-30.76171875,-73.73046875
1,1746313063249.9062,-50.29296875,-33.203125,-34.1796875,-90.8203125
2,1746313063253.8125,-39.55078125,-34.1796875,-36.62109375,-151.85546875
3,1746313063257.7188,-26.3671875,-37.59765625,-37.109375,-188.4765625
4,1746313063261.625,-35.15625,-38.57421875,-38.0859375,-173.828125
5,1746313063265.5312,-53.7109375,-40.52734375,-40.52734375,-169.43359375
6,1746313063269.4375,-60.05859375,-44.43359375,-43.45703125,-168.45703125
7,1746313063273.3438,-63.4765625,-42.96875,-43.9453125,-147.94921875
8,1746313063277.25,-67.3828125,-43.45703125,-40.0390625,-152.83203125
9,1746313063281.1562,-58.59375,-44.43359375,-40.52734375,-167.96875
10,1746313063285.0625,-52.24609375,-40.52734375,-40.0390625,-147.4609375
11,1746313063288.9688,-47.8515625,-36.1328125,-39.55078125,-143.06640625
0,1746313063292.875,-49.8046875,-38.0859375,-43.9453125,-148.4375
1,1746313063296.7812,-48.33984375,-41.9921875,-41.9921875,-138.671875
2,1746313063300.6875,-37.59765625,-41.9921875,-40.0390625,-129.39453125
3,1746313063304.5938,-60.546875,-41.9921875,-41.015625,-119.62890625
4,1746313063308.5,-63.96484375,-45.41015625,-39.0625,-108.3984375
5,1746313063312.4062,-48.33984375,-46.38671875,-38.0859375,-110.83984375
6,1746313063316.3125,-56.640625,-43.45703125,-40.0390625,-119.140625
7,1746313063320.2188,-60.05859375,-43.9453125,-42.96875,-104.4921875
8,1746313063324.125,-57.6171875,-45.41015625,-42.96875,-85.44921875
9,1746313063328.0312,-54.6875,-43.9453125,-46.875,-93.75
10,1746313063331.9375,-52.24609375,-42.96875,-49.31640625,-98.6328125
11,1746313063335.8438,-41.50390625,-40.52734375,-44.921875,-89.84375
0,1746313063339.75,-48.33984375,-41.9921875,-41.9921875,-96.19140625
1,1746313063343.6562,-21.97265625,-43.9453125,-37.59765625,-91.30859375
2,1746313063347.5625,-20.01953125,-41.015625,-37.59765625,-80.56640625
3,1746313063351.4688,-56.15234375,-42.96875,-36.62109375,-69.3359375
4,1746313063355.375,-45.8984375,-42.48046875,-37.59765625,-67.87109375
5,1746313063359.2812,-21.97265625,-38.57421875,-41.015625,-83.0078125
6,1746313063363.1875,-23.4375,-43.9453125,-35.64453125,-67.87109375
7,1746313063367.0938,-51.7578125,-48.828125,-34.66796875,-51.7578125
8,1746313063371,-28.3203125,-46.38671875,-37.59765625,-57.6171875
9,1746313063374.9062,-13.18359375,-42.96875,-36.62109375,-68.359375
10,1746313063378.8125,-47.36328125,-42.48046875,-39.55078125,-70.3125
11,1746313063382.7188,-42.96875,-39.0625,-36.62109375,-45.41015625
0,1746313063386.625,-36.1328125,-35.64453125,-32.71484375,-30.76171875
1,1746313063390.5312,-26.85546875,-33.69140625,-35.64453125,-62.01171875
2,1746313063394.4375,-32.71484375,-34.1796875,-35.64453125,-75.68359375
3,1746313063398.3438,-40.52734375,-35.15625,-35.64453125,-60.05859375
4,1746313063402.25,-11.71875,-35.15625,-37.59765625,-57.6171875
5,1746313063406.1562,-36.1328125,-37.109375,-42.96875,-54.6875
6,1746313063410.0625,-41.9921875,-41.50390625,-45.41015625,-41.50390625
7,1746313063413.9688,-34.1796875,-41.9921875,-44.921875,-66.89453125
8,1746313063417.875,-36.1328125,-41.015625,-43.9453125,-77.63671875
9,1746313063421.7812,-17.08984375,-41.50390625,-40.52734375,-54.19921875
10,1746313063425.6875,-27.34375,-40.0390625,-35.64453125,-67.3828125
11,1746313063429.5938,-41.9921875,-40.0390625,-33.69140625,-64.453125
0,1746313063433.5,-25.87890625,-39.55078125,-30.2734375,-49.8046875
1,1746313063437.4062,-21.97265625,-38.57421875,-29.296875,-53.22265625
2,1746313063441.3125,-23.92578125,-38.57421875,-32.71484375,-62.01171875
3,1746313063445.2188,-26.85546875,-37.59765625,-31.73828125,-79.58984375
4,1746313063449.125,-29.78515625,-36.62109375,-33.69140625,-93.26171875
5,1746313063453.0312,-41.015625,-36.62109375,-37.59765625,-86.42578125
6,1746313063456.9375,-27.83203125,-35.15625,-37.59765625,-84.9609375
7,1746313063460.8438,-23.4375,-35.15625,-30.76171875,-78.61328125
8,1746313063464.75,-59.5703125,-41.50390625,-30.76171875,-74.70703125
9,1746313063468.6562,-47.36328125,-44.921875,-32.71484375,-83.984375
10,1746313063472.5625,-20.99609375,-39.0625,-28.80859375,-85.44921875
11,1746313063476.4688,-43.45703125,-34.1796875,-28.80859375,-86.9140625
0,1746313063480.375,-40.52734375,-32.71484375,-30.2734375,-65.91796875
1,1746313063484.2812,-14.6484375,-32.71484375,-36.1328125,-64.94140625
2,1746313063488.1875,-8.7890625,-34.66796875,-34.66796875,-73.73046875
3,1746313063492.0938,-8.7890625,-34.66796875,-31.25,-62.01171875
4,1746313063496,-10.7421875,-33.69140625,-34.1796875,-73.2421875
5,1746313063499.9062,-5.37109375,-31.25,-31.73828125,-70.3125
6,1746313063503.8125,-20.01953125,-32.71484375,-29.296875,-58.10546875
7,1746313063507.7188,-25.87890625,-37.59765625,-32.71484375,-62.98828125
8,1746313063511.625,-21.97265625,-36.62109375,-34.66796875,-69.82421875
9,1746313063515.5312,-22.4609375,-33.203125,-33.69140625,-76.171875
10,1746313063519.4375,-24.4140625,-35.15625,-32.71484375,-90.33203125
11,1746313063523.3438,-32.2265625,-39.55078125,-33.203125,-94.7265625
0,1746313063527.25,-21.484375,-34.1796875,-34.66796875,-79.58984375
1,1746313063531.1562,-16.6015625,-30.76171875,-28.3203125,-67.87109375
2,1746313063535.0625,-33.69140625,-37.109375,-28.3203125,-70.3125
3,1746313063538.9688,-39.0625,-38.57421875,-32.71484375,-71.77734375
4,1746313063542.875,-41.50390625,-31.25,-30.76171875,-62.98828125
5,1746313063546.7812,-40.52734375,-32.71484375,-29.78515625,-71.77734375
6,1746313063550.6875,-27.34375,-37.109375,-35.64453125,-90.8203125
7,1746313063554.5938,-21.97265625,-34.1796875,-40.52734375,-97.65625
8,1746313063558.5,-43.45703125,-36.62109375,-38.0859375,-89.35546875
9,1746313063562.4062,-32.71484375,-41.015625,-33.69140625,-73.73046875
10,1746313063566.3125,-24.4140625,-37.59765625,-32.2265625,-78.61328125
11,1746313063570.2188,-42.48046875,-34.1796875,-29.78515625,-75.1953125
0,1746313063574.125,-29.296875,-35.64453125,-31.73828125,-57.6171875
1,1746313063578.0312,-6.34765625,-35.15625,-34.66796875,-56.15234375
2,1746313063581.9375,-1.46484375,-31.25,-28.3203125,-46.38671875
3,1746313063585.8438,-11.23046875,-25.87890625,-25.87890625,-78.61328125
4,1746313063589.75,-18.06640625,-28.80859375,-25.390625,-88.37890625
5,1746313063593.6562,-16.11328125,-31.25,-25.87890625,-53.7109375
6,1746313063597.5625,2.9296875,-27.34375,-30.76171875,-42.48046875
7,1746313063601.4688,16.11328125,-24.4140625,-30.2734375,-52.734375
8,1746313063605.375,-8.7890625,-25.390625,-32.2265625,-80.078125
9,1746313063609.2812,2.9296875,-29.296875,-32.71484375,-59.5703125
10,1746313063613.1875,2.44140625,-31.25,-34.1796875,-50.29296875
11,1746313063617.0938,-12.6953125,-28.3203125,-34.1796875,-74.21875
0,1746313063621,-15.13671875,-30.76171875,-32.71484375,-64.453125
1,1746313063624.9062,-20.99609375,-36.62109375,-32.71484375,-67.87109375
2,1746313063628.8125,-21.97265625,-34.1796875,-34.1796875,-77.1484375
3,1746313063632.7188,-25.390625,-33.69140625,-35.64453125,-58.10546875
4,1746313063636.625,-30.2734375,-34.1796875,-30.76171875,-50.78125
5,1746313063640.5312,-30.76171875,-30.2734375,-34.1796875,-48.33984375
6,1746313063644.4375,-26.85546875,-33.69140625,-41.015625,-53.7109375
7,1746313063648.3438,-27.83203125,-37.59765625,-36.62109375,-61.03515625
8,1746313063652.25,-20.01953125,-35.15625,-36.1328125,-50.29296875
9,1746313063656.1562,-19.53125,-34.1796875,-43.45703125,-54.19921875
10,1746313063660.0625,-30.76171875,-33.69140625,-45.41015625,-53.7109375
11,1746313063663.9688,-28.3203125,-34.1796875,-39.0625,-61.5234375
0,1746313063667.875,-24.90234375,-33.69140625,-34.66796875,-59.5703125
1,1746313063671.7812,-34.66796875,-32.71484375,-38.57421875,-51.26953125
2,1746313063675.6875,-59.08203125,-36.1328125,-35.15625,-62.5
3,1746313063679.5938,-51.26953125,-36.1328125,-30.76171875,-63.4765625
4,1746313063683.5,-33.69140625,-31.73828125,-31.73828125,-37.109375
5,1746313063687.4062,-39.0625,-30.2734375,-36.62109375,-41.50390625
6,1746313063691.3125,-36.62109375,-30.2734375,-32.2265625,-70.3125
7,1746313063695.2188,-38.57421875,-31.25,-26.3671875,-63.4765625
8,1746313063699.125,-31.73828125,-30.2734375,-30.76171875,-45.8984375
9,1746313063703.0312,-28.80859375,-27.83203125,-34.1796875,-56.15234375
10,1746313063706.9375,-42.48046875,-28.3203125,-38.57421875,-45.8984375
11,1746313063710.8438,-47.8515625,-32.71484375,-41.50390625,-41.015625
0,1746313063714.75,-47.36328125,-34.66796875,-45.8984375,-63.4765625
1,1746313063718.6562,-40.52734375,-31.73828125,-45.41015625,-62.5
2,1746313063722.5625,-34.1796875,-30.2734375,-37.59765625,-54.6875
3,1746313063726.4688,-34.1796875,-35.15625,-36.1328125,-39.0625
4,1746313063730.375,-45.41015625,-40.52734375,-38.57421875,-33.203125
5,1746313063734.2812,-41.50390625,-41.015625,-42.96875,-59.5703125
6,1746313063738.1875,-22.94921875,-39.0625,-52.734375,-61.03515625
7,1746313063742.0938,-39.55078125,-32.2265625,-44.921875,-62.5
8,1746313063746,-62.5,-29.78515625,-31.25,-60.546875
9,1746313063749.9062,-59.5703125,-32.71484375,-30.2734375,-42.96875
10,1746313063753.8125,-45.41015625,-32.71484375,-31.73828125,-47.36328125
11,1746313063757.7188,-49.8046875,-34.1796875,-33.69140625,-47.36328125
0,1746313063761.625,-58.10546875,-33.69140625,-34.66796875,-41.015625
1,1746313063765.5312,-54.6875,-31.73828125,-33.203125,-36.62109375
2,1746313063769.4375,-62.98828125,-31.25,-30.76171875,-48.33984375
3,1746313063773.3438,-63.96484375,-37.59765625,-26.85546875,-66.40625
4,1746313063777.25,-63.96484375,-39.0625,-27.34375,-61.03515625
5,1746313063781.1562,-74.70703125,-30.2734375,-30.76171875,-60.05859375
6,1746313063785.0625,-88.37890625,-28.3203125,-23.92578125,-78.125
7,1746313063788.9688,-95.21484375,-28.80859375,-17.578125,-93.75
8,1746313063792.875,-110.3515625,-28.3203125,-24.4140625,-118.65234375
9,1746313063796.7812,-130.37109375,-31.73828125,-23.4375,-130.859375
10,1746313063800.6875,-132.32421875,-34.1796875,-14.16015625,-129.8828125
11,1746313063804.5938,-128.41796875,-32.2265625,-14.6484375,-142.578125
0,1746313063808.5,-134.27734375,-29.296875,-17.08984375,-157.71484375
1,1746313063812.4062,-138.18359375,-30.76171875,-15.625,-157.71484375
2,1746313063816.3125,-142.08984375,-35.15625,-17.578125,-168.45703125
3,1746313063820.2188,-161.1328125,-32.2265625,-15.625,-159.1796875
4,1746313063824.125,-154.296875,-27.34375,-24.90234375,-135.7421875
5,1746313063828.0312,-144.53125,-27.83203125,-30.2734375,-152.34375
6,1746313063831.9375,-166.9921875,-30.2734375,-20.01953125,-187.5
7,1746313063835.8438,-165.0390625,-35.64453125,-17.578125,-189.453125
8,1746313063839.75,-137.6953125,-31.25,-25.87890625,-164.55078125
9,1746313063843.6562,-138.671875,-23.92578125,-22.4609375,-153.80859375
10,1746313063847.5625,-142.08984375,-23.4375,-20.01953125,-150.87890625
11,1746313063851.4688,-134.27734375,-30.2734375,-26.85546875,-134.27734375
0,1746313063855.375,-174.31640625,-32.2265625,-26.85546875,-121.58203125
1,1746313063859.2812,-199.70703125,-34.66796875,-28.3203125,-115.234375
2,1746313063863.1875,-172.36328125,-38.0859375,-35.15625,-102.05078125
3,1746313063867.0938,-156.73828125,-34.66796875,-34.1796875,-65.91796875
4,1746313063871,-169.921875,-35.64453125,-26.85546875,-57.12890625
5,1746313063874.9062,-191.89453125,-34.1796875,-28.3203125,-101.07421875
6,1746313063878.8125,-182.12890625,-33.69140625,-26.85546875,-82.03125
7,1746313063882.7188,-169.43359375,-37.109375,-21.484375,-68.359375
8,1746313063886.625,-150.390625,-40.0390625,-27.83203125,-65.91796875
9,1746313063890.5312,-114.74609375,-40.52734375,-34.66796875,-48.828125
10,1746313063894.4375,-89.84375,-35.15625,-36.62109375,-39.0625
11,1746313063898.3438,-75.68359375,-36.62109375,-36.62109375,-15.13671875
0,1746313063902.25,-63.96484375,-35.15625,-36.62109375,7.32421875
1,1746313063906.1562,-41.9921875,-33.203125,-37.59765625,34.66796875
2,1746313063910.0625,-26.85546875,-43.45703125,-34.1796875,42.48046875
3,1746313063913.9688,-23.92578125,-45.41015625,-31.25,45.8984375
4,1746313063917.875,-29.296875,-43.45703125,-39.0625,71.2890625
5,1746313063921.7812,-16.11328125,-44.921875,-41.015625,71.77734375
6,1746313063925.6875,12.20703125,-43.9453125,-34.66796875,66.40625
7,1746313063929.5938,11.23046875,-43.9453125,-38.57421875,63.96484375
8,1746313063933.5,16.11328125,-38.57421875,-36.62109375,69.3359375
9,1746313063937.4062,31.73828125,-36.1328125,-26.3671875,67.3828125
10,1746313063941.3125,24.90234375,-41.015625,-29.296875,58.59375
11,1746313063945.2188,25.390625,-41.015625,-32.71484375,48.828125
0,1746313063949.125,33.69140625,-39.0625,-29.296875,45.8984375
1,1746313063953.0312,30.2734375,-43.45703125,-29.78515625,48.828125
2,1746313063956.9375,32.2265625,-43.45703125,-34.1796875,34.66796875
3,1746313063960.8438,17.578125,-37.109375,-34.66796875,21.484375
4,1746313063964.75,16.6015625,-35.64453125,-37.109375,38.0859375
5,1746313063968.6562,23.4375,-32.71484375,-36.62109375,55.17578125
6,1746313063972.5625,22.94921875,-30.2734375,-34.1796875,28.3203125
7,1746313063976.4688,21.97265625,-27.34375,-34.66796875,6.8359375
8,1746313063980.375,20.99609375,-24.4140625,-38.0859375,1.953125
9,1746313063984.2812,7.8125,-30.76171875,-41.9921875,0
10,1746313063988.1875,1.46484375,-33.203125,-35.64453125,8.30078125
11,1746313063992.0938,-3.41796875,-28.80859375,-29.296875,-13.18359375
0,1746313063996,-5.859375,-32.71484375,-30.2734375,-2.44140625
1,1746313063999.9062,0.48828125,-36.1328125,-27.34375,25.87890625
2,1746313064003.8125,1.953125,-31.73828125,-34.1796875,-11.71875
3,1746313064007.7188,10.25390625,-30.76171875,-41.9921875,-23.4375
4,1746313064011.625,3.41796875,-31.25,-37.109375,-18.5546875
5,1746313064015.5312,0,-30.2734375,-35.15625,-13.671875
6,1746313064019.4375,6.34765625,-29.296875,-35.15625,-2.44140625
7,1746313064023.3438,4.8828125,-33.69140625,-37.59765625,-11.71875
8,1746313064027.25,0,-37.109375,-39.0625,-25.87890625
9,1746313064031.1562,-7.8125,-35.64453125,-37.109375,-23.4375
10,1746313064035.0625,-12.6953125,-30.2734375,-37.109375,-18.06640625
11,1746313064038.9688,-2.9296875,-26.85546875,-40.52734375,-15.625
0,1746313064042.875,-10.25390625,-32.71484375,-38.0859375,-7.32421875
1,1746313064046.7812,-20.5078125,-33.203125,-31.73828125,1.953125
2,1746313064050.6875,-20.5078125,-24.90234375,-31.25,5.859375
3,1746313064054.5938,-22.94921875,-23.92578125,-32.71484375,-0.48828125
4,1746313064058.5,-25.390625,-28.3203125,-29.296875,-6.34765625
5,1746313064062.4062,-31.25,-28.3203125,-26.3671875,13.671875
6,1746313064066.3125,-22.94921875,-28.80859375,-25.87890625,19.04296875
7,1746313064070.2188,-27.83203125,-28.80859375,-21.484375,-6.34765625
8,1746313064074.125,-36.62109375,-28.3203125,-27.83203125,-10.7421875
9,1746313064078.0312,-36.1328125,-28.3203125,-29.296875,-1.46484375
10,1746313064081.9375,-20.99609375,-26.85546875,-24.4140625,-0.48828125
11,1746313064085.8438,-23.4375,-26.85546875,-28.80859375,0.9765625
0,1746313064089.75,-38.0859375,-30.2734375,-36.62109375,1.46484375
1,1746313064093.6562,-33.203125,-33.69140625,-41.50390625,8.30078125
2,1746313064097.5625,-43.9453125,-34.66796875,-37.59765625,-4.8828125
3,1746313064101.4688,-53.7109375,-35.15625,-28.80859375,-28.80859375
4,1746313064105.375,-44.921875,-35.64453125,-26.85546875,-19.04296875
5,1746313064109.2812,-41.9921875,-40.52734375,-35.15625,-8.7890625
6,1746313064113.1875,-41.9921875,-46.875,-42.48046875,-5.859375
7,1746313064117.0938,-33.203125,-42.96875,-35.64453125,-1.953125
8,1746313064121,-33.69140625,-36.62109375,-29.78515625,-17.578125
9,1746313064124.9062,-58.10546875,-34.66796875,-34.1796875,-35.64453125
10,1746313064128.8125,-44.921875,-35.15625,-37.109375,-39.0625
11,1746313064132.7188,-35.64453125,-39.0625,-37.109375,-26.3671875
0,1746313064136.625,-45.41015625,-40.0390625,-35.15625,-14.6484375
1,1746313064140.5312,-38.57421875,-38.0859375,-31.25,-17.08984375
2,1746313064144.4375,-40.52734375,-35.15625,-30.76171875,-30.2734375
3,1746313064148.3438,-40.0390625,-27.34375,-26.85546875,-24.90234375
4,1746313064152.25,-44.43359375,-28.80859375,-24.90234375,-17.08984375
5,1746313064156.1562,-50.78125,-34.66796875,-31.25,-36.62109375
6,1746313064160.0625,-52.24609375,-38.0859375,-37.109375,-53.7109375
7,1746313064163.9688,-40.52734375,-39.0625,-38.57421875,-35.15625
8,1746313064167.875,-39.55078125,-40.0390625,-41.50390625,-24.90234375
9,1746313064171.7812,-49.31640625,-34.66796875,-41.50390625,-35.64453125
10,1746313064175.6875,-45.8984375,-33.69140625,-35.15625,-43.9453125
11,1746313064179.5938,-40.0390625,-39.55078125,-34.66796875,-51.7578125
0,1746313064183.5,-39.55078125,-37.59765625,-36.1328125,-45.41015625
1,1746313064187.4062,-50.29296875,-37.59765625,-33.69140625,-40.0390625
2,1746313064191.3125,-51.26953125,-39.0625,-30.76171875,-53.7109375
3,1746313064195.2188,-41.50390625,-35.64453125,-33.203125,-62.01171875
4,1746313064199.125,-45.8984375,-30.2734375,-32.71484375,-58.10546875
5,1746313064203.0312,-35.15625,-29.78515625,-30.76171875,-52.734375
6,1746313064206.9375,-31.73828125,-33.69140625,-35.64453125,-58.10546875
7,1746313064210.8438,-28.80859375,-35.64453125,-37.59765625,-46.38671875
8,1746313064214.75,-40.0390625,-38.57421875,-39.0625,-32.71484375
9,1746313064218.6562,-44.43359375,-41.9921875,-39.0625,-54.6875
10,1746313064222.5625,-31.73828125,-37.59765625,-36.62109375,-50.29296875
11,1746313064226.4688,-39.55078125,-35.64453125,-34.66796875,-45.41015625
0,1746313064230.375,-47.36328125,-35.64453125,-30.76171875,-45.41015625
1,1746313064234.2812,-46.875,-38.57421875,-33.69140625,-49.31640625
2,1746313064238.1875,-54.6875,-36.1328125,-34.66796875,-64.94140625
3,1746313064242.0938,-64.94140625,-33.203125,-33.69140625,-51.7578125
4,1746313064246,-42.96875,-31.73828125,-35.15625,-39.55078125
5,1746313064249.9062,-36.1328125,-29.296875,-35.15625,-39.0625
6,1746313064253.8125,-51.26953125,-30.2734375,-33.69140625,-29.78515625
7,1746313064257.7188,-33.203125,-27.83203125,-34.66796875,-58.59375
8,1746313064261.625,-31.25,-26.85546875,-40.52734375,-68.359375
9,1746313064265.5312,-32.2265625,-30.76171875,-38.57421875,-47.36328125
10,1746313064269.4375,-28.80859375,-33.203125,-36.62109375,-40.0390625
11,1746313064273.3438,-52.24609375,-32.71484375,-33.69140625,-38.0859375
0,1746313064277.25,-48.33984375,-33.203125,-36.62109375,-41.015625
1,1746313064281.1562,-39.0625,-35.64453125,-39.55078125,-39.0625
2,1746313064285.0625,-45.8984375,-35.64453125,-38.0859375,-45.41015625
3,1746313064288.9688,-47.8515625,-30.76171875,-36.62109375,-50.29296875
4,1746313064292.875,-40.52734375,-27.83203125,-29.296875,-42.96875
5,1746313064296.7812,-45.8984375,-25.87890625,-28.3203125,-33.203125
6,1746313064300.6875,-49.31640625,-26.85546875,-31.25,-28.3203125
7,1746313064304.5938,-33.203125,-29.296875,-29.78515625,-46.875
8,1746313064308.5,-46.38671875,-31.25,-27.83203125,-49.8046875
9,1746313064312.4062,-50.29296875,-34.1796875,-29.78515625,-39.55078125
10,1746313064316.3125,-41.9921875,-34.66796875,-28.3203125,-41.015625
11,1746313064320.2188,-39.0625,-30.76171875,-27.34375,-41.9921875
0,1746313064324.125,-30.76171875,-30.76171875,-29.78515625,-43.45703125
1,1746313064328.0312,-24.4140625,-30.76171875,-27.34375,-38.57421875
2,1746313064331.9375,-32.71484375,-25.390625,-29.296875,-47.36328125
3,1746313064335.8438,-42.48046875,-25.87890625,-31.25,-44.43359375
4,1746313064339.75,-31.73828125,-27.34375,-31.25,-51.7578125
5,1746313064343.6562,-29.296875,-27.83203125,-31.73828125,-51.26953125
6,1746313064347.5625,-59.5703125,-29.296875,-30.2734375,-11.23046875
7,1746313064351.4688,-50.29296875,-27.34375,-27.83203125,-18.5546875
8,1746313064355.375,-37.59765625,-26.3671875,-28.80859375,-56.640625
9,1746313064359.2812,-24.90234375,-28.3203125,-27.83203125,-53.7109375
10,1746313064363.1875,-26.85546875,-27.83203125,-26.3671875,-57.6171875
11,1746313064367.0938,-45.8984375,-29.296875,-25.87890625,-50.29296875
0,1746313064371,-36.1328125,-32.2265625,-29.78515625,-37.109375
1,1746313064374.9062,-37.109375,-34.66796875,-35.64453125,-41.015625
2,1746313064378.8125,-35.15625,-36.1328125,-35.64453125,-34.1796875
3,1746313064382.7188,-38.0859375,-31.73828125,-31.73828125,-32.71484375
4,1746313064386.625,-31.73828125,-31.25,-31.25,-29.78515625
5,1746313064390.5312,-28.80859375,-33.69140625,-33.203125,-37.109375
6,1746313064394.4375,-45.41015625,-34.66796875,-32.71484375,-46.38671875
7,1746313064398.3438,-44.921875,-38.57421875,-31.25,-45.41015625
8,1746313064402.25,-33.69140625,-41.9921875,-29.78515625,-36.1328125
9,1746313064406.1562,-33.69140625,-38.0859375,-31.25,-50.78125
10,1746313064410.0625,-30.76171875,-35.64453125,-33.203125,-66.40625
11,1746313064413.9688,-33.69140625,-34.1796875,-29.78515625,-48.828125
0,1746313064417.875,-39.0625,-30.76171875,-28.80859375,-55.6640625
1,1746313064421.7812,-35.64453125,-29.78515625,-31.73828125,-81.54296875
2,1746313064425.6875,-33.203125,-29.78515625,-36.62109375,-68.359375
3,1746313064429.5938,-43.45703125,-31.73828125,-35.15625,-43.45703125
4,1746313064433.5,-40.52734375,-33.203125,-32.71484375,-47.36328125
5,1746313064437.4062,-42.48046875,-31.25,-34.66796875,-47.36328125
6,1746313064441.3125,-46.38671875,-33.69140625,-34.66796875,-61.5234375
7,1746313064445.2188,-25.390625,-36.62109375,-34.1796875,-62.01171875
8,1746313064449.125,-41.50390625,-33.69140625,-34.66796875,-45.41015625
9,1746313064453.0312,-39.55078125,-33.203125,-33.203125,-38.57421875
10,1746313064456.9375,-24.90234375,-32.71484375,-35.15625,-51.7578125
11,1746313064460.8438,-39.55078125,-32.71484375,-34.1796875,-50.78125
0,1746313064464.75,-40.0390625,-32.2265625,-29.296875,-34.66796875
1,1746313064468.6562,-46.875,-29.78515625,-30.2734375,-38.0859375
2,1746313064472.5625,-51.26953125,-29.78515625,-28.3203125,-41.50390625
3,1746313064476.4688,-40.0390625,-36.1328125,-29.296875,-42.96875
4,1746313064480.375,-43.45703125,-39.0625,-32.71484375,-36.62109375
5,1746313064484.2812,-54.6875,-40.52734375,-33.69140625,-35.64453125
6,1746313064488.1875,-53.7109375,-41.9921875,-38.0859375,-44.921875
7,1746313064492.0938,-45.8984375,-41.50390625,-35.15625,-56.640625
8,1746313064496,-43.9453125,-41.50390625,-31.73828125,-51.7578125
9,1746313064499.9062,-51.7578125,-39.0625,-32.2265625,-44.43359375
10,1746313064503.8125,-52.734375,-33.203125,-32.71484375,-46.875
11,1746313064507.7188,-41.50390625,-28.80859375,-31.73828125,-41.9921875
