index,unixTimestamp,TP9,AF7,AF8,TP10
0,1746313037558.5,0,0,0,0
1,1746313037562.4062,0,0,0,-0.48828125
2,1746313037566.3125,-1.46484375,-1.953125,-1.953125,-2.44140625
3,1746313037570.2188,2.44140625,2.9296875,2.9296875,4.39453125
4,1746313037574.125,-15.13671875,-19.53125,-16.11328125,-26.3671875
5,1746313037578.0312,-44.43359375,-55.17578125,-48.33984375,-66.40625
6,1746313037581.9375,-50.29296875,-55.6640625,-49.8046875,-65.4296875
7,1746313037585.8438,-50.78125,-49.31640625,-46.875,-79.1015625
8,1746313037589.75,-45.41015625,-47.36328125,-44.921875,-83.0078125
9,1746313037593.6562,-51.7578125,-52.24609375,-41.015625,-72.75390625
10,1746313037597.5625,-51.26953125,-47.36328125,-44.43359375,-76.171875
11,1746313037601.4688,-33.69140625,-43.9453125,-47.36328125,-81.0546875
0,1746313037605.375,-35.15625,-48.33984375,-42.96875,-74.21875
1,1746313037609.2812,-30.76171875,-41.50390625,-45.41015625,-59.5703125
2,1746313037613.1875,-22.4609375,-43.9453125,-42.48046875,-61.03515625
3,1746313037617.0938,-23.4375,-47.8515625,-41.50390625,-70.3125
4,1746313037621,-28.3203125,-49.8046875,-42.96875,-67.87109375
5,1746313037624.9062,-30.2734375,-49.8046875,-34.66796875,-68.84765625
6,1746313037628.8125,-30.76171875,-50.29296875,-34.1796875,-56.15234375
7,1746313037632.7188,-46.38671875,-58.10546875,-42.96875,-62.01171875
8,1746313037636.625,-33.203125,-59.08203125,-45.41015625,-74.70703125
9,1746313037640.5312,-16.11328125,-56.15234375,-45.8984375,-58.59375
10,1746313037644.4375,-39.0625,-50.29296875,-51.26953125,-56.15234375
11,1746313037648.3438,-41.9921875,-53.7109375,-48.33984375,-76.66015625
0,1746313037652.25,-36.1328125,-58.10546875,-48.828125,-86.9140625
1,1746313037656.1562,-39.55078125,-57.12890625,-50.78125,-85.9375
2,1746313037660.0625,-40.0390625,-55.17578125,-47.36328125,-77.1484375
3,1746313037663.9688,-45.41015625,-55.6640625,-44.43359375,-68.84765625
4,1746313037667.875,-49.31640625,-51.26953125,-42.48046875,-69.3359375
5,1746313037671.7812,-51.26953125,-45.8984375,-45.41015625,-68.84765625
6,1746313037675.6875,-49.31640625,-50.78125,-46.38671875,-60.546875
7,1746313037679.5938,-52.734375,-55.17578125,-42.96875,-48.33984375
8,1746313037683.5,-52.24609375,-54.19921875,-41.9921875,-49.31640625
9,1746313037687.4062,-49.31640625,-55.17578125,-43.45703125,-63.96484375
10,1746313037691.3125,-47.36328125,-55.17578125,-42.48046875,-56.15234375
11,1746313037695.2188,-39.0625,-56.15234375,-47.8515625,-46.38671875
0,1746313037699.125,-40.0390625,-54.6875,-50.29296875,-40.52734375
1,1746313037703.0312,-39.0625,-50.78125,-42.48046875,-40.0390625
2,1746313037706.9375,-33.69140625,-49.31640625,-38.57421875,-54.19921875
3,1746313037710.8438,-32.2265625,-49.8046875,-40.52734375,-63.96484375
4,1746313037714.75,-28.3203125,-49.31640625,-40.0390625,-65.91796875
5,1746313037718.6562,-35.64453125,-46.875,-37.109375,-69.3359375
6,1746313037722.5625,-44.921875,-48.33984375,-35.15625,-61.03515625
7,1746313037726.4688,-46.38671875,-46.875,-32.71484375,-45.41015625
8,1746313037730.375,-44.43359375,-49.8046875,-33.69140625,-27.34375
9,1746313037734.2812,-47.8515625,-53.22265625,-36.1328125,-17.08984375
10,1746313037738.1875,-47.8515625,-48.33984375,-43.9453125,-36.1328125
11,1746313037742.0938,-47.36328125,-51.7578125,-42.96875,-43.9453125
0,1746313037746,-62.01171875,-49.31640625,-40.52734375,-46.38671875
1,1746313037749.9062,-51.7578125,-47.8515625,-39.55078125,-55.17578125
2,1746313037753.8125,-26.3671875,-48.828125,-37.59765625,-63.96484375
3,1746313037757.7188,-20.01953125,-46.875,-39.0625,-60.546875
4,1746313037761.625,-28.80859375,-47.8515625,-39.55078125,-49.31640625
5,1746313037765.5312,-39.0625,-44.43359375,-39.0625,-49.8046875
6,1746313037769.4375,-30.76171875,-44.43359375,-33.69140625,-49.8046875
7,1746313037773.3438,-22.94921875,-41.9921875,-38.57421875,-51.7578125
8,1746313037777.25,-25.390625,-48.828125,-44.921875,-50.29296875
9,1746313037781.1562,-21.97265625,-53.22265625,-40.52734375,-49.8046875
10,1746313037785.0625,-19.04296875,-48.828125,-40.0390625,-64.94140625
11,1746313037788.9688,-22.94921875,-46.875,-42.48046875,-71.77734375
0,1746313037792.875,-33.203125,-48.828125,-38.0859375,-60.05859375
1,1746313037796.7812,-28.3203125,-48.33984375,-39.55078125,-51.7578125
2,1746313037800.6875,-30.76171875,-48.828125,-42.48046875,-60.05859375
3,1746313037804.5938,-39.0625,-50.78125,-41.015625,-58.59375
4,1746313037808.5,-39.0625,-50.29296875,-38.57421875,-45.8984375
5,1746313037812.4062,-47.36328125,-46.38671875,-38.0859375,-49.8046875
6,1746313037816.3125,-57.12890625,-51.26953125,-40.0390625,-59.5703125
7,1746313037820.2188,-52.734375,-51.26953125,-38.0859375,-58.59375
8,1746313037824.125,-38.57421875,-46.875,-36.62109375,-46.38671875
9,1746313037828.0312,-42.48046875,-45.8984375,-36.1328125,-42.48046875
10,1746313037831.9375,-48.828125,-45.41015625,-38.57421875,-38.57421875
11,1746313037835.8438,-33.69140625,-44.921875,-41.50390625,-34.66796875
0,1746313037839.75,-41.015625,-46.38671875,-39.55078125,-48.828125
1,1746313037843.6562,-53.22265625,-50.78125,-40.0390625,-49.31640625
2,1746313037847.5625,-42.48046875,-44.921875,-40.0390625,-44.43359375
3,1746313037851.4688,-43.45703125,-49.31640625,-36.62109375,-38.0859375
4,1746313037855.375,-49.31640625,-54.19921875,-36.1328125,-35.64453125
5,1746313037859.2812,-53.22265625,-45.8984375,-41.9921875,-47.8515625
6,1746313037863.1875,-45.41015625,-44.921875,-45.41015625,-55.17578125
7,1746313037867.0938,-49.31640625,-49.31640625,-43.45703125,-61.5234375
8,1746313037871,-57.6171875,-44.921875,-40.52734375,-60.05859375
9,1746313037874.9062,-54.6875,-40.52734375,-42.96875,-53.7109375
10,1746313037878.8125,-53.22265625,-42.96875,-42.96875,-50.29296875
11,1746313037882.7188,-55.6640625,-41.50390625,-37.59765625,-52.24609375
0,1746313037886.625,-58.10546875,-41.015625,-41.9921875,-64.94140625
1,1746313037890.5312,-56.15234375,-41.50390625,-45.41015625,-71.2890625
2,1746313037894.4375,-44.43359375,-45.41015625,-45.8984375,-67.3828125
3,1746313037898.3438,-33.69140625,-47.8515625,-43.45703125,-61.03515625
4,1746313037902.25,-41.50390625,-41.015625,-39.0625,-69.3359375
5,1746313037906.1562,-51.7578125,-40.0390625,-37.109375,-68.84765625
6,1746313037910.0625,-43.9453125,-44.921875,-41.9921875,-51.7578125
7,1746313037913.9688,-52.734375,-41.015625,-46.38671875,-56.640625
8,1746313037917.875,-72.75390625,-38.57421875,-45.41015625,-62.5
9,1746313037921.7812,-52.24609375,-39.55078125,-39.55078125,-46.875
10,1746313037925.6875,-35.15625,-44.921875,-39.55078125,-30.2734375
11,1746313037929.5938,-56.15234375,-48.828125,-42.48046875,-38.57421875
0,1746313037933.5,-57.12890625,-48.33984375,-41.015625,-42.48046875
1,1746313037937.4062,-46.38671875,-41.9921875,-46.875,-39.55078125
2,1746313037941.3125,-50.78125,-37.59765625,-47.8515625,-43.45703125
3,1746313037945.2188,-39.0625,-46.875,-41.50390625,-44.43359375
4,1746313037949.125,-61.5234375,-43.9453125,-36.62109375,-39.0625
5,1746313037953.0312,-78.61328125,-37.59765625,-37.59765625,-34.1796875
6,1746313037956.9375,-50.29296875,-43.9453125,-38.0859375,-27.83203125
7,1746313037960.8438,-49.8046875,-43.9453125,-36.1328125,-34.66796875
8,1746313037964.75,-61.5234375,-39.55078125,-34.66796875,-38.57421875
9,1746313037968.6562,-64.94140625,-38.57421875,-37.109375,-39.55078125
10,1746313037972.5625,-59.5703125,-44.43359375,-36.62109375,-48.828125
11,1746313037976.4688,-56.640625,-47.36328125,-33.203125,-47.8515625
0,1746313037980.375,-61.03515625,-50.29296875,-34.1796875,-50.29296875
1,1746313037984.2812,-63.4765625,-47.36328125,-38.0859375,-47.36328125
2,1746313037988.1875,-63.4765625,-46.38671875,-36.62109375,-42.96875
3,1746313037992.0938,-24.4140625,-49.8046875,-32.2265625,-41.9921875
4,1746313037996,-6.8359375,-40.52734375,-35.64453125,-45.41015625
5,1746313037999.9062,-23.4375,-39.55078125,-36.62109375,-52.24609375
6,1746313038003.8125,-21.484375,-49.8046875,-31.73828125,-43.9453125
7,1746313038007.7188,-2.44140625,-42.96875,-29.296875,-32.2265625
8,1746313038011.625,-5.37109375,-36.62109375,-31.25,-34.66796875
9,1746313038015.5312,-33.69140625,-36.62109375,-36.1328125,-43.45703125
10,1746313038019.4375,-34.1796875,-37.59765625,-38.0859375,-39.55078125
11,1746313038023.3438,-22.4609375,-43.9453125,-39.0625,-36.62109375
0,1746313038027.25,-30.2734375,-45.8984375,-33.69140625,-37.59765625
1,1746313038031.1562,-46.875,-41.015625,-34.66796875,-41.015625
2,1746313038035.0625,-47.36328125,-41.015625,-40.0390625,-48.828125
3,1746313038038.9688,-35.15625,-41.9921875,-40.0390625,-51.7578125
4,1746313038042.875,-37.109375,-44.921875,-40.0390625,-47.36328125
5,1746313038046.7812,-48.828125,-47.36328125,-38.57421875,-40.52734375
6,1746313038050.6875,-51.26953125,-44.921875,-36.62109375,-42.48046875
7,1746313038054.5938,-48.33984375,-42.96875,-35.64453125,-37.109375
8,1746313038058.5,-39.0625,-39.0625,-34.1796875,-33.69140625
9,1746313038062.4062,-37.109375,-42.48046875,-37.59765625,-38.57421875
10,1746313038066.3125,-34.1796875,-45.41015625,-40.52734375,-41.50390625
11,1746313038070.2188,-36.1328125,-43.9453125,-37.59765625,-40.52734375
0,1746313038074.125,-47.36328125,-39.0625,-37.59765625,-31.73828125
1,1746313038078.0312,-43.9453125,-41.50390625,-35.15625,-27.83203125
2,1746313038081.9375,-40.52734375,-46.38671875,-30.76171875,-33.203125
3,1746313038085.8438,-43.9453125,-46.875,-32.2265625,-33.203125
4,1746313038089.75,-49.8046875,-44.43359375,-33.203125,-26.85546875
5,1746313038093.6562,-47.8515625,-45.8984375,-29.78515625,-25.390625
6,1746313038097.5625,-36.62109375,-48.33984375,-31.25,-25.390625
7,1746313038101.4688,-52.734375,-45.8984375,-36.1328125,-25.87890625
8,1746313038105.375,-59.5703125,-44.921875,-31.73828125,-23.92578125
9,1746313038109.2812,-56.640625,-40.52734375,-29.78515625,-19.04296875
10,1746313038113.1875,-55.17578125,-41.015625,-25.87890625,-26.85546875
11,1746313038117.0938,-46.875,-46.38671875,-24.90234375,-31.25
0,1746313038121,-51.26953125,-37.109375,-29.78515625,-33.69140625
1,1746313038124.9062,-48.828125,-38.57421875,-25.87890625,-30.2734375
2,1746313038128.8125,-45.41015625,-51.26953125,-23.92578125,-12.20703125
3,1746313038132.7188,-40.52734375,-46.875,-31.25,-18.06640625
4,1746313038136.625,-49.31640625,-39.55078125,-33.203125,-33.69140625
5,1746313038140.5312,-57.12890625,-41.015625,-30.76171875,-32.2265625
6,1746313038144.4375,-46.38671875,-41.50390625,-34.66796875,-32.2265625
7,1746313038148.3438,-45.41015625,-41.50390625,-34.1796875,-42.96875
8,1746313038152.25,-46.875,-39.55078125,-34.1796875,-43.9453125
9,1746313038156.1562,-39.0625,-39.55078125,-34.66796875,-31.73828125
10,1746313038160.0625,-40.0390625,-41.50390625,-33.69140625,-23.92578125
11,1746313038163.9688,-48.828125,-40.0390625,-31.25,-22.94921875
0,1746313038167.875,-54.19921875,-36.1328125,-33.203125,-34.1796875
1,1746313038171.7812,-59.5703125,-35.15625,-33.69140625,-32.2265625
2,1746313038175.6875,-51.26953125,-36.62109375,-32.71484375,-30.2734375
3,1746313038179.5938,-50.29296875,-36.62109375,-39.55078125,-34.66796875
4,1746313038183.5,-51.26953125,-39.0625,-40.0390625,-41.50390625
5,1746313038187.4062,-52.24609375,-41.015625,-37.59765625,-51.7578125
6,1746313038191.3125,-53.7109375,-37.109375,-37.109375,-46.38671875
7,1746313038195.2188,-43.45703125,-38.0859375,-36.62109375,-48.33984375
8,1746313038199.125,-55.17578125,-41.9921875,-41.50390625,-47.8515625
9,1746313038203.0312,-67.3828125,-41.50390625,-44.43359375,-50.78125
10,1746313038206.9375,-67.87109375,-43.45703125,-39.0625,-45.8984375
11,1746313038210.8438,-65.4296875,-45.41015625,-37.59765625,-41.50390625
0,1746313038214.75,-65.4296875,-45.8984375,-39.55078125,-47.8515625
1,1746313038218.6562,-71.77734375,-46.38671875,-38.57421875,-47.8515625
2,1746313038222.5625,-62.5,-44.43359375,-38.0859375,-48.33984375
3,1746313038226.4688,-52.24609375,-38.0859375,-40.52734375,-47.36328125
4,1746313038230.375,-67.3828125,-40.0390625,-40.52734375,-51.26953125
5,1746313038234.2812,-86.9140625,-38.0859375,-41.50390625,-61.03515625
6,1746313038238.1875,-73.73046875,-44.43359375,-43.9453125,-47.8515625
7,1746313038242.0938,-56.640625,-60.546875,-40.52734375,-34.66796875
8,1746313038246,-45.8984375,-58.10546875,-39.55078125,-44.43359375
9,1746313038249.9062,-58.59375,-52.734375,-41.50390625,-46.875
10,1746313038253.8125,-67.87109375,-52.24609375,-39.0625,-52.24609375
11,1746313038257.7188,-48.33984375,-51.26953125,-36.62109375,-51.26953125
0,1746313038261.625,-48.828125,-48.33984375,-38.0859375,-43.45703125
1,1746313038265.5312,-59.08203125,-47.36328125,-38.57421875,-43.45703125
2,1746313038269.4375,-62.01171875,-45.41015625,-38.57421875,-52.734375
3,1746313038273.3438,-62.01171875,-40.52734375,-38.0859375,-45.8984375
4,1746313038277.25,-54.6875,-37.109375,-34.66796875,-22.94921875
5,1746313038281.1562,-58.59375,-35.64453125,-33.69140625,-31.73828125
6,1746313038285.0625,-61.03515625,-34.66796875,-31.25,-46.875
7,1746313038288.9688,-50.29296875,-31.25,-28.80859375,-49.8046875
8,1746313038292.875,-48.828125,-31.25,-29.296875,-52.24609375
9,1746313038296.7812,-47.36328125,-35.64453125,-30.76171875,-46.875
10,1746313038300.6875,-47.36328125,-35.15625,-28.80859375,-36.62109375
11,1746313038304.5938,-47.8515625,-35.15625,-31.25,-38.57421875
0,1746313038308.5,-56.15234375,-37.109375,-32.2265625,-43.9453125
1,1746313038312.4062,-67.87109375,-38.57421875,-35.15625,-39.55078125
2,1746313038316.3125,-56.15234375,-37.59765625,-37.109375,-47.36328125
3,1746313038320.2188,-54.19921875,-37.109375,-32.71484375,-59.08203125
4,1746313038324.125,-56.15234375,-39.55078125,-29.296875,-46.875
5,1746313038328.0312,-40.52734375,-32.2265625,-24.4140625,-39.55078125
6,1746313038331.9375,-45.41015625,-31.73828125,-29.296875,-46.38671875
7,1746313038335.8438,-54.6875,-38.0859375,-36.1328125,-57.6171875
8,1746313038339.75,-44.43359375,-40.0390625,-37.109375,-54.6875
9,1746313038343.6562,-44.43359375,-39.55078125,-38.0859375,-40.52734375
10,1746313038347.5625,-43.9453125,-39.55078125,-41.9921875,-40.0390625
11,1746313038351.4688,-42.96875,-41.015625,-40.0390625,-47.36328125
0,1746313038355.375,-47.8515625,-40.52734375,-37.109375,-58.59375
1,1746313038359.2812,-42.48046875,-36.62109375,-34.1796875,-45.8984375
2,1746313038363.1875,-35.15625,-31.73828125,-30.76171875,-45.8984375
3,1746313038367.0938,-45.41015625,-38.0859375,-39.55078125,-60.546875
4,1746313038371,-51.7578125,-44.921875,-47.8515625,-64.453125
5,1746313038374.9062,-43.45703125,-40.52734375,-46.875,-63.96484375
6,1746313038378.8125,-42.96875,-39.0625,-41.50390625,-59.5703125
7,1746313038382.7188,-49.8046875,-44.43359375,-39.0625,-55.17578125
8,1746313038386.625,-42.96875,-42.96875,-39.0625,-49.8046875
9,1746313038390.5312,-40.0390625,-37.59765625,-38.57421875,-60.546875
10,1746313038394.4375,-54.19921875,-38.0859375,-36.1328125,-55.6640625
11,1746313038398.3438,-53.7109375,-41.015625,-39.0625,-45.41015625
0,1746313038402.25,-59.08203125,-42.48046875,-40.0390625,-54.19921875
1,1746313038406.1562,-64.94140625,-44.921875,-40.0390625,-53.7109375
2,1746313038410.0625,-38.57421875,-41.015625,-40.52734375,-48.828125
3,1746313038413.9688,-41.9921875,-39.55078125,-35.64453125,-46.875
4,1746313038417.875,-66.40625,-43.9453125,-31.25,-47.36328125
5,1746313038421.7812,-62.98828125,-42.48046875,-33.203125,-51.26953125
6,1746313038425.6875,-52.734375,-44.43359375,-35.64453125,-38.0859375
7,1746313038429.5938,-57.12890625,-47.8515625,-37.109375,-35.64453125
8,1746313038433.5,-59.08203125,-52.734375,-41.015625,-57.12890625
9,1746313038437.4062,-47.8515625,-52.24609375,-42.96875,-65.91796875
10,1746313038441.3125,-37.59765625,-42.96875,-41.50390625,-61.03515625
11,1746313038445.2188,-53.7109375,-42.48046875,-39.0625,-51.7578125
0,1746313038449.125,-61.03515625,-40.52734375,-37.59765625,-56.640625
1,1746313038453.0312,-45.8984375,-35.15625,-39.0625,-53.7109375
2,1746313038456.9375,-44.43359375,-37.109375,-44.921875,-42.96875
3,1746313038460.8438,-48.828125,-41.9921875,-45.8984375,-51.26953125
4,1746313038464.75,-47.8515625,-46.38671875,-39.55078125,-60.05859375
5,1746313038468.6562,-56.15234375,-46.38671875,-33.69140625,-56.15234375
6,1746313038472.5625,-55.6640625,-51.26953125,-35.15625,-56.15234375
7,1746313038476.4688,-42.48046875,-49.31640625,-35.64453125,-62.01171875
8,1746313038480.375,-35.15625,-43.45703125,-38.57421875,-62.5
9,1746313038484.2812,-41.9921875,-45.8984375,-41.015625,-61.03515625
10,1746313038488.1875,-37.109375,-38.57421875,-37.109375,-51.26953125
11,1746313038492.0938,-16.11328125,-33.69140625,-37.59765625,-37.59765625
0,1746313038496,-18.06640625,-39.0625,-38.0859375,-32.2265625
1,1746313038499.9062,-42.96875,-41.015625,-29.78515625,-35.15625
2,1746313038503.8125,-57.6171875,-42.48046875,-31.73828125,-41.50390625
3,1746313038507.7188,-53.22265625,-54.6875,-39.55078125,-30.2734375
4,1746313038511.625,-68.84765625,-68.359375,-38.0859375,-35.64453125
5,1746313038515.5312,-63.96484375,-60.546875,-35.15625,-54.6875
6,1746313038519.4375,-57.12890625,-55.17578125,-35.15625,-62.01171875
7,1746313038523.3438,-59.08203125,-70.80078125,-38.0859375,-61.5234375
8,1746313038527.25,-54.19921875,-60.546875,-34.66796875,-57.6171875
9,1746313038531.1562,-61.5234375,-32.2265625,-38.0859375,-60.546875
10,1746313038535.0625,-62.01171875,-22.4609375,-46.38671875,-66.89453125
11,1746313038538.9688,-53.22265625,-24.4140625,-39.55078125,-66.40625
0,1746313038542.875,-50.78125,-34.66796875,-42.96875,-61.03515625
1,1746313038546.7812,-52.734375,-41.50390625,-45.41015625,-52.734375
2,1746313038550.6875,-58.59375,-45.8984375,-33.69140625,-60.05859375
3,1746313038554.5938,-56.15234375,-53.22265625,-30.2734375,-47.8515625
4,1746313038558.5,-41.9921875,-47.8515625,-38.0859375,-21.97265625
5,1746313038562.4062,-46.38671875,-51.7578125,-39.55078125,-50.78125
6,1746313038566.3125,-49.31640625,-64.94140625,-34.1796875,-81.0546875
7,1746313038570.2188,-46.38671875,-59.08203125,-36.62109375,-84.47265625
8,1746313038574.125,-50.78125,-41.50390625,-29.78515625,-77.1484375
9,1746313038578.0312,-63.4765625,-31.25,-25.87890625,-76.171875
10,1746313038581.9375,-66.40625,-33.203125,-31.25,-74.21875
11,1746313038585.8438,-62.5,-40.0390625,-35.64453125,-76.171875
0,1746313038589.75,-61.03515625,-45.41015625,-37.59765625,-78.125
1,1746313038593.6562,-57.6171875,-47.8515625,-39.55078125,-74.70703125
2,1746313038597.5625,-59.5703125,-56.640625,-41.50390625,-79.1015625
3,1746313038601.4688,-64.453125,-58.59375,-41.015625,-74.70703125
4,1746313038605.375,-62.5,-45.41015625,-40.52734375,-72.265625
5,1746313038609.2812,-49.8046875,-35.15625,-33.69140625,-69.82421875
6,1746313038613.1875,-41.9921875,-36.62109375,-34.1796875,-61.5234375
7,1746313038617.0938,-48.828125,-43.9453125,-41.015625,-62.5
8,1746313038621,-52.24609375,-49.8046875,-39.0625,-61.5234375
9,1746313038624.9062,-44.43359375,-44.921875,-40.52734375,-52.24609375
10,1746313038628.8125,-39.0625,-43.9453125,-45.8984375,-51.26953125
11,1746313038632.7188,-23.92578125,-58.10546875,-36.1328125,-50.78125
0,1746313038636.625,-22.4609375,-58.59375,-24.4140625,-31.73828125
1,1746313038640.5312,-36.62109375,-55.6640625,-26.3671875,-53.22265625
2,1746313038644.4375,-30.2734375,-60.05859375,-36.62109375,-89.84375
3,1746313038648.3438,-41.015625,-59.5703125,-43.9453125,-77.1484375
4,1746313038652.25,-49.8046875,-62.01171875,-40.0390625,-66.40625
5,1746313038656.1562,-46.38671875,-55.17578125,-37.59765625,-44.43359375
6,1746313038660.0625,-47.8515625,-36.1328125,-43.45703125,-32.71484375
7,1746313038663.9688,-36.62109375,-40.52734375,-43.45703125,-57.6171875
8,1746313038667.875,-29.78515625,-40.0390625,-41.015625,-70.80078125
9,1746313038671.7812,-44.43359375,-28.3203125,-38.0859375,-71.2890625
10,1746313038675.6875,-36.62109375,-37.109375,-35.64453125,-67.87109375
11,1746313038679.5938,-29.78515625,-33.69140625,-41.50390625,-60.546875
0,1746313038683.5,-34.1796875,-22.4609375,-41.50390625,-50.29296875
1,1746313038687.4062,-20.99609375,-26.85546875,-35.15625,-38.57421875
2,1746313038691.3125,-39.0625,-37.59765625,-45.8984375,-34.1796875
3,1746313038695.2188,-62.98828125,-60.546875,-53.22265625,-34.1796875
4,1746313038699.125,-51.7578125,-73.2421875,-35.15625,-36.1328125
5,1746313038703.0312,-21.97265625,-39.55078125,-29.296875,-28.80859375
6,1746313038706.9375,-34.66796875,-35.15625,-45.8984375,-46.38671875
7,1746313038710.8438,-36.1328125,-71.77734375,-42.96875,-37.109375
8,1746313038714.75,-5.37109375,-65.4296875,-22.4609375,14.6484375
9,1746313038718.6562,9.27734375,-62.01171875,-16.6015625,-8.7890625
10,1746313038722.5625,-13.671875,-72.265625,-20.01953125,-28.80859375
11,1746313038726.4688,-86.9140625,-26.3671875,-39.55078125,-73.73046875
0,1746313038730.375,-119.62890625,-22.94921875,-50.29296875,-117.67578125
1,1746313038734.2812,-115.72265625,-63.4765625,-52.24609375,-95.703125
2,1746313038738.1875,-99.609375,-83.49609375,-61.5234375,-115.72265625
3,1746313038742.0938,-136.23046875,-61.5234375,-36.1328125,-154.78515625
4,1746313038746,-159.66796875,-15.625,-29.296875,-158.203125
5,1746313038749.9062,-117.1875,-30.2734375,-39.55078125,-124.0234375
6,1746313038753.8125,-111.81640625,-28.3203125,-23.92578125,-123.046875
7,1746313038757.7188,-168.9453125,-60.546875,-9.27734375,-135.25390625
8,1746313038761.625,-185.05859375,-112.79296875,-6.8359375,-115.234375
9,1746313038765.5312,-144.53125,-60.05859375,-35.64453125,-139.6484375
10,1746313038769.4375,-162.59765625,-53.7109375,-42.96875,-166.015625
11,1746313038773.3438,-183.10546875,-33.203125,-46.875,-154.296875
0,1746313038777.25,-151.3671875,57.12890625,-74.21875,-191.40625
1,1746313038781.1562,-154.78515625,71.77734375,-40.52734375,-198.73046875
2,1746313038785.0625,-214.35546875,69.82421875,2.44140625,-171.875
3,1746313038788.9688,-222.65625,74.70703125,-7.32421875,-160.15625
4,1746313038792.875,-176.26953125,46.875,-20.01953125,-169.43359375
5,1746313038796.7812,-163.57421875,22.4609375,-12.6953125,-194.3359375
6,1746313038800.6875,-153.3203125,-49.8046875,-30.76171875,-169.43359375
7,1746313038804.5938,-165.0390625,-60.546875,-108.3984375,-134.765625
8,1746313038808.5,-195.80078125,83.0078125,-91.30859375,-142.578125
9,1746313038812.4062,-197.265625,124.0234375,11.71875,-186.03515625
10,1746313038816.3125,-176.7578125,85.44921875,27.83203125,-187.98828125
11,1746313038820.2188,-134.27734375,67.3828125,-4.39453125,-143.06640625
0,1746313038824.125,-52.734375,31.73828125,-6.8359375,-125
1,1746313038828.0312,-14.6484375,-0.48828125,11.71875,-102.05078125
2,1746313038831.9375,-37.109375,-20.99609375,-5.37109375,-96.19140625
3,1746313038835.8438,-48.828125,18.5546875,-52.734375,-120.60546875
4,1746313038839.75,-45.41015625,75.1953125,-58.59375,-98.6328125
5,1746313038843.6562,-27.34375,41.9921875,-45.8984375,-85.9375
6,1746313038847.5625,-9.27734375,4.39453125,-52.24609375,-94.23828125
7,1746313038851.4688,4.39453125,9.27734375,-49.31640625,-58.59375
8,1746313038855.375,17.08984375,11.23046875,-35.64453125,-33.203125
9,1746313038859.2812,61.5234375,5.37109375,-26.3671875,-6.34765625
10,1746313038863.1875,50.78125,3.41796875,-10.25390625,7.32421875
11,1746313038867.0938,4.39453125,62.01171875,-15.625,-2.9296875
0,1746313038871,2.9296875,95.703125,-40.0390625,-12.20703125
1,1746313038874.9062,34.66796875,67.87109375,-44.921875,-3.90625
2,1746313038878.8125,53.22265625,36.1328125,-25.390625,53.22265625
3,1746313038882.7188,38.57421875,1.46484375,-13.671875,41.9921875
4,1746313038886.625,52.24609375,-46.875,-17.08984375,-2.44140625
5,1746313038890.5312,76.171875,-63.96484375,-11.23046875,22.94921875
6,1746313038894.4375,29.296875,5.859375,-30.2734375,42.48046875
7,1746313038898.3438,-2.44140625,71.77734375,-49.8046875,9.27734375
8,1746313038902.25,21.484375,70.80078125,-28.3203125,-4.8828125
9,1746313038906.1562,51.26953125,30.2734375,-12.6953125,15.625
10,1746313038910.0625,70.80078125,5.37109375,-19.53125,43.45703125
11,1746313038913.9688,55.17578125,26.85546875,-31.73828125,49.31640625
0,1746313038917.875,34.1796875,8.30078125,-42.96875,-5.859375
1,1746313038921.7812,-18.06640625,-12.6953125,-28.80859375,-29.296875
2,1746313038925.6875,-11.23046875,21.97265625,-2.9296875,-4.8828125
3,1746313038929.5938,42.96875,40.52734375,-2.44140625,11.71875
4,1746313038933.5,16.11328125,-10.7421875,-25.87890625,-4.39453125
5,1746313038937.4062,-8.30078125,-38.57421875,-20.5078125,-9.27734375
6,1746313038941.3125,3.41796875,-2.9296875,-6.8359375,14.16015625
7,1746313038945.2188,21.484375,-12.6953125,-15.13671875,23.92578125
8,1746313038949.125,29.78515625,-39.0625,-19.53125,-3.41796875
9,1746313038953.0312,40.52734375,-32.2265625,-21.97265625,24.90234375
10,1746313038956.9375,29.78515625,-44.43359375,-21.97265625,48.828125
11,1746313038960.8438,12.20703125,-40.0390625,-23.4375,0
0,1746313038964.75,9.27734375,4.39453125,-22.94921875,-21.97265625
1,1746313038968.6562,0.48828125,12.6953125,-17.578125,0.48828125
2,1746313038972.5625,-20.99609375,-18.06640625,-12.6953125,8.30078125
3,1746313038976.4688,-11.23046875,-21.97265625,-22.94921875,-11.71875
4,1746313038980.375,9.765625,-20.01953125,-33.203125,-22.94921875
5,1746313038984.2812,-14.16015625,-12.6953125,-41.015625,-27.34375
6,1746313038988.1875,-41.50390625,-13.18359375,-32.2265625,-18.06640625
7,1746313038992.0938,-24.4140625,-18.5546875,-33.203125,-14.6484375
8,1746313038996,-15.625,-34.1796875,-51.26953125,-6.34765625
9,1746313038999.9062,4.39453125,-40.52734375,-54.19921875,-32.71484375
10,1746313039003.8125,7.8125,-56.640625,-40.52734375,-59.08203125
11,1746313039007.7188,-12.6953125,-58.59375,-20.01953125,-35.64453125
0,1746313039011.625,-20.99609375,-27.83203125,-26.3671875,-24.4140625
1,1746313039015.5312,-28.3203125,-30.2734375,-40.52734375,-39.55078125
2,1746313039019.4375,-41.50390625,-37.59765625,-35.15625,-38.57421875
3,1746313039023.3438,-53.7109375,-48.33984375,-29.78515625,-18.06640625
4,1746313039027.25,-48.33984375,-62.98828125,-24.4140625,-7.8125
5,1746313039031.1562,-41.015625,-58.10546875,-45.41015625,-32.2265625
6,1746313039035.0625,-43.9453125,-19.53125,-62.98828125,-59.08203125
7,1746313039038.9688,-38.57421875,-8.30078125,-41.015625,-52.24609375
8,1746313039042.875,11.23046875,-42.96875,-12.20703125,-35.15625
9,1746313039046.7812,39.0625,-36.62109375,-3.90625,-22.94921875
10,1746313039050.6875,5.859375,-79.1015625,-31.25,4.39453125
11,1746313039054.5938,21.484375,-92.7734375,-63.4765625,-11.23046875
0,1746313039058.5,49.31640625,-36.62109375,-48.33984375,-39.0625
1,1746313039062.4062,35.15625,-29.296875,-26.3671875,-29.296875
2,1746313039066.3125,18.5546875,-30.76171875,-19.53125,-16.6015625
3,1746313039070.2188,14.6484375,-20.01953125,-16.11328125,-6.8359375
4,1746313039074.125,0.9765625,-47.36328125,-18.5546875,-31.25
5,1746313039078.0312,-17.578125,-77.1484375,-30.2734375,-41.9921875
6,1746313039081.9375,5.37109375,-51.26953125,-37.59765625,-20.5078125
7,1746313039085.8438,17.578125,-54.19921875,-39.55078125,-48.828125
8,1746313039089.75,-8.7890625,-63.96484375,-31.73828125,-57.6171875
9,1746313039093.6562,-27.34375,-53.7109375,-30.2734375,-37.109375
10,1746313039097.5625,-41.50390625,-69.3359375,-36.1328125,-43.9453125
11,1746313039101.4688,-41.50390625,-72.265625,-37.59765625,-43.45703125
0,1746313039105.375,-50.78125,-47.8515625,-41.9921875,-42.48046875
1,1746313039109.2812,-55.17578125,-58.10546875,-43.45703125,-47.8515625
2,1746313039113.1875,-40.52734375,-54.6875,-48.828125,-41.9921875
3,1746313039117.0938,-28.80859375,-39.55078125,-39.0625,-34.66796875
4,1746313039121,-15.13671875,-75.1953125,-21.484375,-38.57421875
5,1746313039124.9062,-7.32421875,-80.078125,-29.296875,-48.828125
6,1746313039128.8125,3.41796875,-35.15625,-45.8984375,-62.5
7,1746313039132.7188,0,-38.57421875,-32.71484375,-64.94140625
8,1746313039136.625,-13.18359375,-70.80078125,-13.18359375,-36.62109375
9,1746313039140.5312,-13.18359375,-73.2421875,-19.04296875,4.39453125
10,1746313039144.4375,-11.71875,-51.7578125,-38.0859375,-7.32421875
11,1746313039148.3438,-19.53125,-46.38671875,-53.7109375,-37.109375
0,1746313039152.25,-30.2734375,-64.453125,-47.36328125,-48.33984375
1,1746313039156.1562,-65.91796875,-61.5234375,-41.50390625,-56.15234375
2,1746313039160.0625,-62.01171875,-30.76171875,-46.875,-41.015625
3,1746313039163.9688,-39.0625,-23.92578125,-46.38671875,-35.15625
4,1746313039167.875,-42.48046875,-53.22265625,-46.875,-10.25390625
5,1746313039171.7812,-11.23046875,-68.84765625,-31.25,-6.34765625
6,1746313039175.6875,-34.66796875,-66.89453125,-26.3671875,-13.671875
7,1746313039179.5938,-62.98828125,-63.4765625,-29.78515625,-15.13671875
8,1746313039183.5,-54.6875,-42.96875,-34.66796875,-17.578125
9,1746313039187.4062,-44.43359375,-36.62109375,-51.7578125,-29.78515625
10,1746313039191.3125,-38.57421875,-49.8046875,-52.24609375,-12.6953125
11,1746313039195.2188,-12.6953125,-58.10546875,-42.96875,3.41796875
0,1746313039199.125,-28.80859375,-63.96484375,-31.25,-6.8359375
1,1746313039203.0312,-58.59375,-54.6875,-19.04296875,4.8828125
2,1746313039206.9375,-41.015625,-27.34375,-29.296875,12.20703125
3,1746313039210.8438,-24.90234375,-16.11328125,-48.828125,-3.90625
4,1746313039214.75,-25.87890625,-30.2734375,-51.26953125,1.46484375
5,1746313039218.6562,-40.0390625,-46.38671875,-48.33984375,30.2734375
6,1746313039222.5625,-49.8046875,-55.6640625,-41.50390625,28.80859375
7,1746313039226.4688,-33.203125,-55.6640625,-13.671875,31.25
8,1746313039230.375,-27.34375,-63.4765625,-2.9296875,25.87890625
9,1746313039234.2812,-26.85546875,-99.609375,-7.32421875,25.390625
10,1746313039238.1875,-32.2265625,-89.35546875,-20.01953125,29.296875
11,1746313039242.0938,-40.0390625,-20.01953125,-33.203125,28.3203125
0,1746313039246,-58.59375,-2.9296875,-43.45703125,22.94921875
1,1746313039249.9062,-47.36328125,-43.45703125,-39.0625,21.484375
2,1746313039253.8125,-28.80859375,-52.734375,-39.0625,34.66796875
3,1746313039257.7188,-29.296875,-47.36328125,-53.22265625,52.24609375
4,1746313039261.625,-33.203125,-34.66796875,-56.640625,39.0625
5,1746313039265.5312,-38.57421875,-33.203125,-44.921875,20.99609375
6,1746313039269.4375,-32.71484375,-53.7109375,-31.25,10.7421875
7,1746313039273.3438,-26.85546875,-62.5,-24.90234375,5.859375
8,1746313039277.25,-18.06640625,-59.5703125,-25.390625,34.1796875
9,1746313039281.1562,-17.578125,-63.96484375,-35.64453125,55.6640625
10,1746313039285.0625,-31.73828125,-77.1484375,-33.203125,70.3125
11,1746313039288.9688,-60.546875,-54.19921875,-41.50390625,103.02734375
0,1746313039292.875,-77.1484375,-37.59765625,-52.734375,117.1875
1,1746313039296.7812,-42.48046875,-49.8046875,-45.41015625,116.69921875
2,1746313039300.6875,-30.76171875,-62.01171875,-41.50390625,94.7265625
3,1746313039304.5938,-36.1328125,-52.24609375,-40.0390625,46.38671875
4,1746313039308.5,-47.36328125,-48.33984375,-31.25,43.9453125
5,1746313039312.4062,-52.24609375,-59.08203125,-40.0390625,59.08203125
6,1746313039316.3125,-23.4375,-60.05859375,-42.96875,54.6875
7,1746313039320.2188,8.30078125,-53.22265625,-41.9921875,50.78125
8,1746313039324.125,37.109375,-53.22265625,-56.15234375,68.84765625
9,1746313039328.0312,-39.0625,-66.89453125,-37.109375,50.78125
10,1746313039331.9375,-89.84375,-57.12890625,-17.08984375,25.87890625
11,1746313039335.8438,-43.9453125,-57.12890625,-33.69140625,42.48046875
0,1746313039339.75,-38.57421875,-96.19140625,-54.19921875,63.4765625
1,1746313039343.6562,-31.73828125,-89.35546875,-53.7109375,67.3828125
2,1746313039347.5625,-24.90234375,-46.38671875,-40.52734375,30.2734375
3,1746313039351.4688,-45.8984375,-44.43359375,-25.390625,0.48828125
4,1746313039355.375,-41.9921875,-47.36328125,-9.27734375,-15.625
5,1746313039359.2812,-29.296875,-30.76171875,-13.18359375,-8.7890625
6,1746313039363.1875,-20.99609375,-38.57421875,-38.0859375,4.39453125
7,1746313039367.0938,-31.25,-47.36328125,-63.96484375,-5.859375
8,1746313039371,-4.8828125,-32.2265625,-64.453125,34.1796875
9,1746313039374.9062,14.16015625,-50.29296875,-47.36328125,50.78125
10,1746313039378.8125,3.90625,-48.33984375,-2.9296875,5.859375
11,1746313039382.7188,5.859375,-12.20703125,35.15625,-2.44140625
0,1746313039386.625,-17.08984375,-3.90625,28.3203125,7.8125
1,1746313039390.5312,-10.25390625,-0.9765625,13.671875,36.1328125
2,1746313039394.4375,-20.01953125,-5.37109375,9.765625,41.015625
3,1746313039398.3438,-29.296875,-19.53125,5.37109375,12.6953125
4,1746313039402.25,2.9296875,-47.8515625,-0.48828125,23.4375
5,1746313039406.1562,11.23046875,-39.55078125,-10.25390625,10.7421875
6,1746313039410.0625,-14.16015625,-10.7421875,-14.6484375,11.23046875
7,1746313039413.9688,-33.203125,-11.71875,-25.390625,14.6484375
8,1746313039417.875,-19.04296875,-27.83203125,-45.41015625,-6.34765625
9,1746313039421.7812,-11.23046875,-30.2734375,-33.203125,-3.41796875
10,1746313039425.6875,-3.90625,-32.71484375,-26.3671875,6.8359375
11,1746313039429.5938,-7.32421875,-39.0625,-20.5078125,-11.71875
0,1746313039433.5,-36.62109375,-41.9921875,-5.37109375,-39.55078125
1,1746313039437.4062,-32.71484375,-40.0390625,-18.5546875,-41.50390625
2,1746313039441.3125,-45.8984375,-22.4609375,-31.73828125,-29.296875
3,1746313039445.2188,-55.17578125,-22.94921875,-24.90234375,-16.6015625
4,1746313039449.125,-44.921875,-44.921875,-14.16015625,-23.92578125
5,1746313039453.0312,-32.71484375,-40.0390625,-20.5078125,-35.64453125
6,1746313039456.9375,-23.92578125,-31.25,-33.203125,-32.2265625
7,1746313039460.8438,-15.13671875,-48.828125,-46.875,-33.69140625
8,1746313039464.75,-0.9765625,-67.3828125,-48.828125,-18.06640625
9,1746313039468.6562,-28.80859375,-56.15234375,-42.96875,-17.578125
10,1746313039472.5625,-41.50390625,-29.296875,-42.48046875,-34.1796875
11,1746313039476.4688,-18.06640625,-38.0859375,-24.90234375,-8.30078125
0,1746313039480.375,-24.90234375,-35.64453125,-29.78515625,-3.90625
1,1746313039484.2812,-29.296875,-13.671875,-50.29296875,-37.59765625
2,1746313039488.1875,-8.7890625,-29.78515625,-45.41015625,-29.296875
3,1746313039492.0938,-2.44140625,-47.36328125,-27.83203125,-8.7890625
4,1746313039496,-15.625,-36.1328125,-41.50390625,-19.53125
5,1746313039499.9062,-51.26953125,-37.109375,-53.7109375,-39.55078125
6,1746313039503.8125,-79.1015625,-40.52734375,-34.1796875,-55.6640625
7,1746313039507.7188,-62.5,-33.203125,-25.390625,-50.78125
8,1746313039511.625,-50.78125,-50.29296875,-38.57421875,-48.33984375
9,1746313039515.5312,-51.7578125,-52.24609375,-36.1328125,-70.80078125
10,1746313039519.4375,-28.3203125,-49.31640625,-25.87890625,-72.75390625
11,1746313039523.3438,-54.19921875,-60.05859375,-42.48046875,-66.89453125
0,1746313039527.25,-79.1015625,-49.8046875,-33.69140625,-70.3125
1,1746313039531.1562,-60.546875,-34.1796875,-32.71484375,-57.6171875
2,1746313039535.0625,-79.1015625,-34.1796875,-49.8046875,-42.96875
3,1746313039538.9688,-58.59375,-39.55078125,-38.57421875,-27.83203125
4,1746313039542.875,-36.62109375,-45.41015625,-25.87890625,-27.34375
5,1746313039546.7812,-38.0859375,-53.22265625,-21.97265625,-29.78515625
6,1746313039550.6875,-6.34765625,-56.15234375,-20.5078125,-21.97265625
7,1746313039554.5938,-23.4375,-48.828125,-23.92578125,-15.13671875
8,1746313039558.5,-42.48046875,-37.59765625,-28.3203125,-6.8359375
9,1746313039562.4062,-47.36328125,-42.48046875,-24.90234375,-26.85546875
10,1746313039566.3125,-53.22265625,-46.875,-24.90234375,-52.734375
11,1746313039570.2188,-41.015625,-33.69140625,-44.921875,-55.6640625
0,1746313039574.125,-53.22265625,-39.55078125,-69.3359375,-55.6640625
1,1746313039578.0312,-87.40234375,-51.26953125,-53.22265625,-38.57421875
2,1746313039581.9375,-91.30859375,-53.7109375,-24.90234375,-39.55078125
3,1746313039585.8438,-69.3359375,-56.640625,-20.99609375,-39.0625
4,1746313039589.75,-79.1015625,-51.7578125,-16.6015625,-27.34375
5,1746313039593.6562,-93.26171875,-39.0625,-20.01953125,-31.73828125
6,1746313039597.5625,-79.1015625,-23.4375,-26.85546875,-55.6640625
7,1746313039601.4688,-66.89453125,-35.15625,-44.43359375,-50.78125
8,1746313039605.375,-47.8515625,-42.96875,-48.33984375,-48.33984375
9,1746313039609.2812,-52.734375,-39.55078125,-49.31640625,-58.10546875
10,1746313039613.1875,-67.87109375,-49.8046875,-56.15234375,-44.921875
11,1746313039617.0938,-66.40625,-51.7578125,-47.36328125,-33.69140625
0,1746313039621,-62.5,-40.0390625,-32.71484375,-48.33984375
1,1746313039624.9062,-47.8515625,-51.26953125,-26.3671875,-52.734375
2,1746313039628.8125,-11.23046875,-61.03515625,-37.59765625,-30.2734375
3,1746313039632.7188,-23.4375,-53.22265625,-40.52734375,-40.0390625
4,1746313039636.625,-55.6640625,-53.22265625,-29.296875,-63.96484375
5,1746313039640.5312,-54.19921875,-50.78125,-30.76171875,-50.78125
6,1746313039644.4375,-70.80078125,-45.41015625,-37.109375,-53.22265625
7,1746313039648.3438,-80.078125,-50.29296875,-37.109375,-59.08203125
8,1746313039652.25,-89.84375,-55.6640625,-44.43359375,-55.17578125
9,1746313039656.1562,-88.8671875,-41.50390625,-34.1796875,-53.7109375
10,1746313039660.0625,-78.61328125,-47.36328125,-25.87890625,-39.0625
11,1746313039663.9688,-80.56640625,-66.89453125,-38.0859375,-35.64453125
0,1746313039667.875,-68.84765625,-57.6171875,-49.8046875,-47.36328125
1,1746313039671.7812,-76.66015625,-50.29296875,-47.36328125,-51.26953125
2,1746313039675.6875,-108.88671875,-54.6875,-31.73828125,-52.24609375
3,1746313039679.5938,-101.07421875,-53.22265625,-24.4140625,-33.203125
4,1746313039683.5,-93.75,-53.22265625,-27.34375,-20.01953125
5,1746313039687.4062,-90.8203125,-48.33984375,-48.33984375,-45.41015625
6,1746313039691.3125,-77.1484375,-50.29296875,-42.96875,-43.45703125
7,1746313039695.2188,-88.37890625,-64.453125,-24.4140625,-28.80859375
8,1746313039699.125,-106.4453125,-62.98828125,-25.87890625,-40.0390625
9,1746313039703.0312,-112.79296875,-41.015625,-26.3671875,-52.24609375
10,1746313039706.9375,-70.80078125,-48.33984375,-41.9921875,-32.2265625
11,1746313039710.8438,-40.52734375,-71.2890625,-51.26953125,-26.3671875
0,1746313039714.75,-71.2890625,-72.265625,-44.921875,-46.875
1,1746313039718.6562,-76.66015625,-41.9921875,-43.9453125,-44.921875
2,1746313039722.5625,-75.68359375,-20.5078125,-38.57421875,-60.546875
3,1746313039726.4688,-77.63671875,-48.33984375,-21.97265625,-60.546875
4,1746313039730.375,-74.21875,-50.29296875,-26.3671875,-40.52734375
5,1746313039734.2812,-77.63671875,-49.8046875,-34.1796875,-36.1328125
6,1746313039738.1875,-78.125,-56.640625,-41.50390625,-40.0390625
7,1746313039742.0938,-80.56640625,-66.89453125,-55.17578125,-23.4375
8,1746313039746,-80.56640625,-83.49609375,-30.76171875,2.9296875
9,1746313039749.9062,-88.8671875,-58.59375,-20.5078125,-43.9453125
10,1746313039753.8125,-68.359375,-40.0390625,-16.6015625,-76.171875
11,1746313039757.7188,-67.87109375,-49.8046875,-22.94921875,-61.5234375
0,1746313039761.625,-79.1015625,-79.1015625,-29.78515625,-63.96484375
1,1746313039765.5312,-62.98828125,-82.03125,-25.87890625,-54.6875
2,1746313039769.4375,-73.73046875,-39.0625,-40.0390625,-56.15234375
3,1746313039773.3438,-71.2890625,-4.8828125,-48.828125,-59.5703125
4,1746313039777.25,-60.05859375,0.48828125,-51.26953125,-68.84765625
5,1746313039781.1562,-56.15234375,-26.3671875,-45.41015625,-47.36328125
6,1746313039785.0625,-81.0546875,-45.41015625,-44.921875,-27.34375
7,1746313039788.9688,-95.703125,-41.9921875,-41.50390625,-47.8515625
8,1746313039792.875,-72.75390625,-57.6171875,-20.99609375,-45.41015625
9,1746313039796.7812,-67.3828125,-62.01171875,-9.27734375,-39.0625
10,1746313039800.6875,-62.5,-53.22265625,-4.8828125,-45.41015625
11,1746313039804.5938,-50.29296875,-60.05859375,-9.765625,-43.9453125
0,1746313039808.5,-41.015625,-54.6875,-17.578125,-32.2265625
1,1746313039812.4062,-49.8046875,-40.52734375,-26.3671875,-31.73828125
2,1746313039816.3125,-54.6875,-44.43359375,-38.0859375,-42.48046875
3,1746313039820.2188,-43.45703125,-36.1328125,-38.0859375,-55.17578125
4,1746313039824.125,-55.17578125,-23.92578125,-30.76171875,-42.96875
5,1746313039828.0312,-65.91796875,-28.3203125,-20.5078125,-32.71484375
6,1746313039831.9375,-64.453125,-24.4140625,-18.06640625,-34.1796875
7,1746313039835.8438,-63.96484375,-36.1328125,-23.92578125,-20.99609375
8,1746313039839.75,-54.6875,-58.10546875,-24.4140625,-39.0625
9,1746313039843.6562,-54.6875,-55.6640625,-26.3671875,-26.3671875
10,1746313039847.5625,-75.68359375,-33.69140625,-24.90234375,-10.7421875
11,1746313039851.4688,-54.6875,-9.765625,-14.6484375,-49.31640625
0,1746313039855.375,-73.73046875,-25.87890625,-5.37109375,-59.5703125
1,1746313039859.2812,-148.4375,-55.17578125,-9.27734375,-48.33984375
2,1746313039863.1875,-158.203125,-60.05859375,-16.6015625,-46.875
3,1746313039867.0938,-108.3984375,-47.8515625,-21.484375,-44.921875
4,1746313039871,-39.55078125,-50.78125,-28.3203125,-37.109375
5,1746313039874.9062,-9.27734375,-45.41015625,-19.04296875,-37.109375
6,1746313039878.8125,-13.671875,-29.78515625,-17.578125,-27.83203125
7,1746313039882.7188,0.9765625,-35.15625,-19.53125,-34.1796875
8,1746313039886.625,-1.46484375,-44.921875,-24.4140625,-58.59375
9,1746313039890.5312,6.8359375,-34.66796875,-19.53125,-45.41015625
10,1746313039894.4375,22.4609375,-21.484375,-10.25390625,-33.203125
11,1746313039898.3438,0.9765625,-27.83203125,-16.11328125,-30.2734375
0,1746313039902.25,-1.46484375,-33.203125,-26.85546875,-36.1328125
1,1746313039906.1562,-13.671875,-33.69140625,-28.80859375,-51.7578125
2,1746313039910.0625,-15.625,-36.62109375,-13.18359375,-48.828125
3,1746313039913.9688,-10.25390625,-41.50390625,-3.90625,-21.97265625
4,1746313039917.875,4.8828125,-33.69140625,-6.34765625,-11.23046875
5,1746313039921.7812,1.953125,-29.78515625,-17.578125,-33.203125
6,1746313039925.6875,-33.203125,-41.9921875,-32.71484375,-32.2265625
7,1746313039929.5938,-36.62109375,-54.19921875,-10.25390625,-30.2734375
8,1746313039933.5,-12.20703125,-20.5078125,10.25390625,-41.015625
9,1746313039937.4062,-18.06640625,-9.765625,5.37109375,-26.85546875
10,1746313039941.3125,-33.69140625,-39.55078125,-9.27734375,-30.2734375
11,1746313039945.2188,-19.04296875,-20.01953125,-22.94921875,-39.55078125
0,1746313039949.125,-11.71875,-1.46484375,-16.11328125,-44.43359375
1,1746313039953.0312,-21.484375,-10.25390625,-5.859375,-41.9921875
2,1746313039956.9375,-56.640625,-26.3671875,-7.8125,-29.78515625
3,1746313039960.8438,-46.38671875,-41.50390625,-10.25390625,-35.64453125
4,1746313039964.75,-22.94921875,-55.17578125,-12.20703125,-44.43359375
5,1746313039968.6562,-22.4609375,-54.19921875,-18.06640625,-20.5078125
6,1746313039972.5625,-27.83203125,-37.109375,-27.83203125,6.34765625
7,1746313039976.4688,-28.3203125,-27.34375,-41.015625,-18.06640625
8,1746313039980.375,-50.78125,-33.203125,-12.20703125,-37.59765625
9,1746313039984.2812,-77.1484375,-28.3203125,22.4609375,-37.59765625
10,1746313039988.1875,-45.8984375,-17.578125,15.13671875,-35.64453125
11,1746313039992.0938,-15.13671875,-8.30078125,2.9296875,-24.90234375
0,1746313039996,-7.32421875,-14.6484375,4.39453125,-17.578125
1,1746313039999.9062,-46.38671875,-35.64453125,-3.41796875,-30.2734375
2,1746313040003.8125,-66.40625,-43.45703125,-17.578125,-48.828125
3,1746313040007.7188,-50.78125,-44.43359375,-15.625,-36.62109375
4,1746313040011.625,-55.6640625,-50.29296875,0.9765625,-20.99609375
5,1746313040015.5312,-77.63671875,-36.62109375,-7.32421875,-127.9296875
6,1746313040019.4375,-84.9609375,-21.484375,-32.71484375,-233.3984375
7,1746313040023.3438,-64.94140625,-24.90234375,-25.87890625,-211.42578125
8,1746313040027.25,-39.55078125,-24.90234375,-20.5078125,-172.36328125
9,1746313040031.1562,-41.9921875,-30.2734375,-24.4140625,-170.41015625
10,1746313040035.0625,-62.01171875,-56.15234375,-17.08984375,-168.9453125
11,1746313040038.9688,-63.4765625,-69.3359375,-1.46484375,-139.16015625
0,1746313040042.875,-57.6171875,-58.59375,5.37109375,-123.046875
1,1746313040046.7812,-41.015625,-30.2734375,-12.20703125,-111.81640625
2,1746313040050.6875,-46.38671875,-16.11328125,-18.06640625,-106.4453125
3,1746313040054.5938,-49.8046875,-21.97265625,-18.5546875,-104.00390625
4,1746313040058.5,-39.0625,-18.5546875,-20.5078125,-87.40234375
5,1746313040062.4062,-43.45703125,-24.4140625,-0.9765625,-58.10546875
6,1746313040066.3125,-65.4296875,-35.15625,4.39453125,-57.12890625
7,1746313040070.2188,-73.2421875,-28.3203125,-5.37109375,-79.1015625
8,1746313040074.125,-63.96484375,-36.1328125,-9.765625,-47.36328125
9,1746313040078.0312,-42.96875,-37.59765625,-11.23046875,-39.0625
10,1746313040081.9375,-47.8515625,-27.34375,-12.20703125,-75.68359375
11,1746313040085.8438,-64.453125,-22.94921875,-9.765625,-65.91796875
0,1746313040089.75,-63.96484375,-23.4375,-18.5546875,-50.29296875
1,1746313040093.6562,-48.828125,-29.78515625,-12.6953125,-55.6640625
2,1746313040097.5625,-41.50390625,-25.87890625,-0.48828125,-54.6875
3,1746313040101.4688,-44.43359375,-26.3671875,-15.625,-50.29296875
4,1746313040105.375,-45.8984375,-25.390625,-21.97265625,-46.38671875
5,1746313040109.2812,-63.4765625,-20.5078125,-18.06640625,-36.62109375
6,1746313040113.1875,-57.12890625,-14.16015625,-12.6953125,-42.48046875
7,1746313040117.0938,-46.38671875,-22.4609375,10.7421875,-48.828125
8,1746313040121,-40.0390625,-26.85546875,30.76171875,-46.875
9,1746313040124.9062,-23.92578125,-16.6015625,16.11328125,-44.921875
10,1746313040128.8125,-24.90234375,-17.578125,7.32421875,-43.9453125
11,1746313040132.7188,-24.90234375,-33.203125,8.30078125,-28.3203125
0,1746313040136.625,-42.48046875,-32.71484375,0,-21.97265625
1,1746313040140.5312,-44.921875,-20.5078125,-7.32421875,-33.203125
2,1746313040144.4375,-42.96875,-17.08984375,-11.71875,-26.85546875
3,1746313040148.3438,-69.82421875,-14.16015625,-15.13671875,-33.69140625
4,1746313040152.25,-59.08203125,-19.53125,-13.671875,-44.43359375
5,1746313040156.1562,-26.3671875,-28.80859375,-7.32421875,-23.92578125
6,1746313040160.0625,-46.38671875,-20.5078125,-1.46484375,-12.20703125
7,1746313040163.9688,-63.4765625,-11.71875,-3.41796875,-23.92578125
8,1746313040167.875,-35.64453125,-19.04296875,11.71875,-25.390625
9,1746313040171.7812,-36.62109375,-20.5078125,23.4375,-27.83203125
10,1746313040175.6875,-32.71484375,-15.13671875,6.8359375,-24.90234375
11,1746313040179.5938,-16.6015625,-20.99609375,-1.46484375,-31.73828125
0,1746313040183.5,-32.71484375,-12.20703125,-3.41796875,-46.875
1,1746313040187.4062,-46.38671875,-4.8828125,-3.90625,-44.43359375
2,1746313040191.3125,-48.33984375,-11.23046875,-3.41796875,-48.33984375
3,1746313040195.2188,-41.50390625,-28.3203125,-6.34765625,-37.109375
4,1746313040199.125,-15.13671875,-41.50390625,-8.30078125,-23.92578125
5,1746313040203.0312,-16.6015625,-31.25,-10.25390625,-21.484375
6,1746313040206.9375,-43.9453125,-21.484375,-2.44140625,-0.48828125
7,1746313040210.8438,-50.29296875,-11.23046875,5.37109375,-9.765625
8,1746313040214.75,-47.36328125,-16.6015625,3.90625,-29.296875
9,1746313040218.6562,-60.05859375,-8.7890625,-7.32421875,-40.0390625
10,1746313040222.5625,-77.63671875,10.25390625,-17.578125,-52.734375
11,1746313040226.4688,-62.5,6.8359375,-19.53125,-50.29296875
0,1746313040230.375,-37.109375,-0.9765625,-19.53125,-49.8046875
1,1746313040234.2812,-27.34375,-11.71875,-21.484375,-48.33984375
2,1746313040238.1875,-34.1796875,2.9296875,-19.04296875,-47.36328125
3,1746313040242.0938,-43.45703125,6.8359375,-11.71875,-38.0859375
4,1746313040246,-37.59765625,-5.37109375,-15.13671875,-21.484375
5,1746313040249.9062,-30.76171875,2.44140625,-29.78515625,-42.48046875
6,1746313040253.8125,-15.625,2.44140625,-28.3203125,-65.4296875
7,1746313040257.7188,-8.30078125,-12.6953125,-15.13671875,-41.9921875
8,1746313040261.625,-20.99609375,-1.953125,-15.625,-32.71484375
9,1746313040265.5312,-17.08984375,-2.44140625,-14.16015625,-32.71484375
10,1746313040269.4375,-15.625,-19.04296875,-13.18359375,-36.62109375
11,1746313040273.3438,-40.0390625,-41.015625,-13.671875,-20.5078125
0,1746313040277.25,-52.734375,-21.484375,-24.90234375,-26.3671875
1,1746313040281.1562,-47.8515625,15.625,-24.4140625,-32.2265625
2,1746313040285.0625,-41.50390625,20.99609375,-12.20703125,-29.78515625
3,1746313040288.9688,-41.9921875,6.8359375,-4.39453125,-51.7578125
4,1746313040292.875,-39.55078125,-11.23046875,-4.39453125,-38.57421875
5,1746313040296.7812,-41.9921875,-11.71875,-9.27734375,-38.0859375
6,1746313040300.6875,-32.71484375,-13.18359375,-11.23046875,-32.2265625
7,1746313040304.5938,-25.390625,-28.3203125,-7.32421875,-21.484375
8,1746313040308.5,-36.1328125,-26.85546875,-9.27734375,-27.34375
9,1746313040312.4062,-39.55078125,-1.953125,-20.99609375,-33.69140625
10,1746313040316.3125,-29.78515625,-9.27734375,-16.11328125,-41.50390625
11,1746313040320.2188,-36.62109375,-19.53125,-4.39453125,-21.97265625
0,1746313040324.125,-32.71484375,-13.671875,-11.71875,-22.4609375
1,1746313040328.0312,-14.16015625,-16.11328125,-10.7421875,-47.36328125
2,1746313040331.9375,-19.04296875,-12.20703125,-4.8828125,-49.31640625
3,1746313040335.8438,-26.3671875,-5.37109375,-7.8125,-33.69140625
4,1746313040339.75,-22.4609375,-2.44140625,-12.20703125,-31.73828125
5,1746313040343.6562,-23.92578125,-4.39453125,-15.625,-32.71484375
6,1746313040347.5625,-38.57421875,5.37109375,-18.06640625,-54.6875
7,1746313040351.4688,-46.875,-9.27734375,-16.11328125,-50.78125
8,1746313040355.375,-25.87890625,-22.4609375,-7.32421875,-7.8125
9,1746313040359.2812,-14.16015625,-12.20703125,-6.8359375,-15.625
10,1746313040363.1875,-30.76171875,-0.48828125,-16.6015625,-49.31640625
11,1746313040367.0938,-28.3203125,-20.99609375,-17.08984375,-46.38671875
0,1746313040371,-29.78515625,-38.57421875,-12.6953125,-38.0859375
1,1746313040374.9062,-37.59765625,-19.53125,-19.04296875,-44.43359375
2,1746313040378.8125,-52.24609375,14.6484375,-21.97265625,-38.57421875
3,1746313040382.7188,-41.50390625,-28.80859375,-10.25390625,-37.109375
4,1746313040386.625,-38.57421875,-42.96875,-15.13671875,-61.5234375
5,1746313040390.5312,-72.265625,41.50390625,-31.73828125,-86.9140625
6,1746313040394.4375,-58.59375,2.44140625,-29.296875,-51.26953125
7,1746313040398.3438,-19.53125,-52.734375,-23.4375,-35.64453125
8,1746313040402.25,5.37109375,-36.1328125,-3.41796875,-47.8515625
9,1746313040406.1562,-46.38671875,-14.6484375,12.6953125,-38.0859375
10,1746313040410.0625,-93.26171875,-4.39453125,5.37109375,-54.6875
11,1746313040413.9688,-68.84765625,-9.27734375,-2.44140625,-80.56640625
0,1746313040417.875,-77.63671875,-15.625,4.39453125,-73.73046875
1,1746313040421.7812,-100.5859375,-33.203125,13.671875,-59.08203125
2,1746313040425.6875,-103.515625,-16.11328125,6.8359375,-71.2890625
3,1746313040429.5938,-114.74609375,-23.92578125,0.48828125,-82.51953125
4,1746313040433.5,-116.2109375,-33.69140625,4.8828125,-94.7265625
5,1746313040437.4062,-83.49609375,-25.87890625,7.8125,-84.9609375
6,1746313040441.3125,-43.45703125,-33.69140625,15.13671875,-94.23828125
7,1746313040445.2188,-34.1796875,-35.15625,14.6484375,-138.671875
8,1746313040449.125,-27.83203125,-40.0390625,11.23046875,-135.7421875
9,1746313040453.0312,-32.2265625,-40.52734375,12.20703125,-109.375
10,1746313040456.9375,-41.50390625,-33.69140625,11.23046875,-76.171875
11,1746313040460.8438,-23.4375,-36.62109375,10.7421875,-76.66015625
0,1746313040464.75,-10.7421875,-33.203125,1.953125,-94.23828125
1,1746313040468.6562,-1.953125,-17.08984375,2.9296875,-75.1953125
2,1746313040472.5625,5.37109375,-23.4375,17.08984375,-80.078125
3,1746313040476.4688,-3.90625,-24.4140625,20.99609375,-77.1484375
4,1746313040480.375,-11.23046875,-20.5078125,7.32421875,-69.3359375
5,1746313040484.2812,-43.9453125,-17.578125,-6.34765625,-82.51953125
6,1746313040488.1875,-64.94140625,-36.62109375,-1.953125,-74.21875
7,1746313040492.0938,-54.6875,-53.22265625,10.7421875,-51.7578125
8,1746313040496,-47.8515625,-37.109375,10.25390625,-36.1328125
9,1746313040499.9062,-46.38671875,-25.87890625,2.9296875,-46.38671875
10,1746313040503.8125,-39.0625,-6.34765625,-2.44140625,-83.0078125
11,1746313040507.7188,-42.96875,-14.16015625,1.46484375,-66.89453125
0,1746313040511.625,-43.9453125,-36.1328125,12.20703125,-31.73828125
1,1746313040515.5312,-42.96875,-28.80859375,4.39453125,-37.59765625
2,1746313040519.4375,-50.29296875,-38.0859375,-8.30078125,-35.64453125
3,1746313040523.3438,-62.5,-27.34375,-16.11328125,-18.5546875
4,1746313040527.25,-39.55078125,-24.4140625,-10.7421875,-28.3203125
5,1746313040531.1562,-16.6015625,-42.48046875,2.44140625,-32.71484375
6,1746313040535.0625,-49.31640625,-40.52734375,-1.953125,-30.76171875
7,1746313040538.9688,-32.71484375,-47.36328125,-22.94921875,-4.8828125
8,1746313040542.875,-32.71484375,-47.8515625,-24.90234375,12.20703125
9,1746313040546.7812,-35.64453125,-48.828125,-13.18359375,10.25390625
10,1746313040550.6875,-17.578125,-42.48046875,-19.04296875,5.37109375
11,1746313040554.5938,-3.90625,-55.6640625,-21.484375,46.875
0,1746313040558.5,6.34765625,-61.03515625,-19.04296875,65.4296875
1,1746313040562.4062,6.34765625,-63.96484375,-21.97265625,49.8046875
2,1746313040566.3125,-14.6484375,-72.265625,-25.87890625,37.109375
3,1746313040570.2188,3.90625,-65.91796875,-32.71484375,37.109375
4,1746313040574.125,22.4609375,-68.359375,-37.59765625,62.01171875
5,1746313040578.0312,14.16015625,-70.3125,-34.66796875,80.078125
6,1746313040581.9375,29.296875,-77.1484375,-33.203125,69.3359375
7,1746313040585.8438,31.73828125,-73.73046875,-37.59765625,51.7578125
8,1746313040589.75,31.25,-55.6640625,-41.50390625,69.82421875
9,1746313040593.6562,41.9921875,-69.82421875,-47.8515625,75.68359375
10,1746313040597.5625,48.33984375,-91.796875,-50.29296875,62.5
11,1746313040601.4688,38.57421875,-93.26171875,-51.7578125,41.9921875
0,1746313040605.375,36.1328125,-72.75390625,-65.91796875,24.90234375
1,1746313040609.2812,50.78125,-72.75390625,-63.4765625,58.10546875
2,1746313040613.1875,43.45703125,-90.33203125,-62.01171875,76.171875
3,1746313040617.0938,30.76171875,-88.8671875,-62.98828125,63.96484375
4,1746313040621,53.22265625,-91.30859375,-51.7578125,70.3125
5,1746313040624.9062,72.75390625,-78.61328125,-54.19921875,62.01171875
6,1746313040628.8125,59.08203125,-73.2421875,-55.6640625,74.70703125
7,1746313040632.7188,61.5234375,-69.82421875,-53.22265625,64.94140625
8,1746313040636.625,39.55078125,-55.17578125,-56.15234375,40.0390625
9,1746313040640.5312,6.34765625,-38.57421875,-61.03515625,21.97265625
10,1746313040644.4375,33.69140625,-68.359375,-57.6171875,27.34375
11,1746313040648.3438,51.26953125,-92.7734375,-46.38671875,46.875
0,1746313040652.25,37.59765625,-71.2890625,-48.828125,38.57421875
1,1746313040656.1562,27.34375,-66.89453125,-53.7109375,12.20703125
2,1746313040660.0625,29.78515625,-69.3359375,-58.10546875,-1.953125
3,1746313040663.9688,15.625,-66.89453125,-62.01171875,-3.90625
4,1746313040667.875,-6.34765625,-68.359375,-60.546875,-16.6015625
5,1746313040671.7812,-16.6015625,-79.58984375,-62.98828125,-6.8359375
6,1746313040675.6875,-28.3203125,-80.56640625,-63.4765625,7.8125
7,1746313040679.5938,-23.92578125,-79.1015625,-62.01171875,1.953125
8,1746313040683.5,-35.64453125,-67.3828125,-66.40625,-1.46484375
9,1746313040687.4062,-51.26953125,-67.87109375,-58.59375,7.8125
10,1746313040691.3125,-60.05859375,-75.1953125,-54.19921875,8.30078125
11,1746313040695.2188,-66.40625,-62.01171875,-61.5234375,19.04296875
0,1746313040699.125,-68.84765625,-56.640625,-60.546875,12.6953125
1,1746313040703.0312,-66.40625,-65.91796875,-60.05859375,4.8828125
2,1746313040706.9375,-65.91796875,-67.3828125,-62.5,6.34765625
3,1746313040710.8438,-60.05859375,-61.5234375,-60.05859375,-20.99609375
4,1746313040714.75,-57.12890625,-54.6875,-55.17578125,-83.984375
5,1746313040718.6562,-48.33984375,-48.828125,-53.22265625,-96.19140625
6,1746313040722.5625,-61.5234375,-56.15234375,-55.17578125,-75.68359375
7,1746313040726.4688,-110.3515625,-53.22265625,-56.15234375,-80.078125
8,1746313040730.375,-119.62890625,-53.7109375,-52.734375,-82.03125
9,1746313040734.2812,-110.3515625,-50.78125,-52.24609375,-73.2421875
10,1746313040738.1875,-99.609375,-40.52734375,-53.7109375,-59.08203125
11,1746313040742.0938,-99.12109375,-39.55078125,-58.59375,-52.24609375
0,1746313040746,-90.33203125,-50.29296875,-57.6171875,-43.45703125
1,1746313040749.9062,-67.87109375,-54.6875,-50.78125,-30.2734375
2,1746313040753.8125,-41.50390625,-49.31640625,-50.29296875,-24.4140625
3,1746313040757.7188,-19.04296875,-43.45703125,-55.17578125,-29.78515625
4,1746313040761.625,-41.50390625,-44.43359375,-57.12890625,-22.4609375
5,1746313040765.5312,-24.4140625,-39.55078125,-51.26953125,-3.90625
6,1746313040769.4375,6.8359375,-34.1796875,-43.9453125,6.8359375
7,1746313040773.3438,-1.953125,-34.1796875,-41.015625,5.859375
8,1746313040777.25,0.48828125,-40.52734375,-43.9453125,7.8125
9,1746313040781.1562,11.23046875,-40.52734375,-45.41015625,10.25390625
10,1746313040785.0625,24.4140625,-30.2734375,-46.875,-3.41796875
11,1746313040788.9688,18.06640625,-31.73828125,-49.8046875,-8.30078125
0,1746313040792.875,11.71875,-33.69140625,-46.875,-10.25390625
1,1746313040796.7812,3.41796875,-30.76171875,-43.45703125,-13.18359375
2,1746313040800.6875,-1.46484375,-31.25,-43.45703125,-13.671875
3,1746313040804.5938,1.953125,-30.76171875,-41.015625,21.484375
4,1746313040808.5,7.32421875,-23.4375,-41.015625,29.78515625
5,1746313040812.4062,8.30078125,-25.390625,-40.52734375,-3.41796875
6,1746313040816.3125,20.99609375,-32.71484375,-34.1796875,-4.39453125
7,1746313040820.2188,20.5078125,-36.1328125,-31.25,10.7421875
8,1746313040824.125,-9.27734375,-31.73828125,-35.64453125,8.30078125
9,1746313040828.0312,-1.46484375,-26.3671875,-32.71484375,14.16015625
10,1746313040831.9375,10.25390625,-28.3203125,-32.2265625,33.203125
11,1746313040835.8438,7.32421875,-32.2265625,-32.2265625,42.96875
0,1746313040839.75,9.765625,-30.76171875,-31.25,45.41015625
1,1746313040843.6562,9.765625,-30.2734375,-30.76171875,37.59765625
2,1746313040847.5625,10.25390625,-23.92578125,-32.2265625,35.15625
3,1746313040851.4688,20.99609375,-20.01953125,-40.52734375,43.45703125
4,1746313040855.375,14.16015625,-26.85546875,-36.62109375,41.9921875
5,1746313040859.2812,-6.8359375,-34.1796875,-27.83203125,41.50390625
6,1746313040863.1875,1.953125,-41.9921875,-29.78515625,51.26953125
7,1746313040867.0938,-1.46484375,-36.1328125,-29.296875,48.33984375
8,1746313040871,-3.41796875,-31.73828125,-28.80859375,36.1328125
9,1746313040874.9062,22.94921875,-31.73828125,-34.66796875,40.52734375
10,1746313040878.8125,13.671875,-27.83203125,-35.64453125,40.52734375
11,1746313040882.7188,-12.20703125,-29.78515625,-33.203125,21.97265625
0,1746313040886.625,-13.18359375,-30.76171875,-36.62109375,24.90234375
1,1746313040890.5312,15.625,-29.296875,-38.0859375,34.66796875
2,1746313040894.4375,9.27734375,-28.80859375,-34.1796875,27.83203125
3,1746313040898.3438,-25.390625,-35.64453125,-29.78515625,20.5078125
4,1746313040902.25,-33.203125,-36.62109375,-32.2265625,2.44140625
5,1746313040906.1562,-6.8359375,-25.390625,-36.1328125,6.34765625
6,1746313040910.0625,-2.9296875,-31.25,-39.0625,6.34765625
7,1746313040913.9688,-32.71484375,-30.2734375,-36.1328125,-0.9765625
8,1746313040917.875,-36.1328125,-24.4140625,-34.66796875,7.8125
9,1746313040921.7812,-15.13671875,-28.80859375,-41.50390625,0.48828125
10,1746313040925.6875,-15.13671875,-31.73828125,-41.50390625,-3.90625
11,1746313040929.5938,-13.18359375,-32.2265625,-36.1328125,-2.9296875
0,1746313040933.5,0.9765625,-36.1328125,-33.203125,-21.97265625
1,1746313040937.4062,-18.06640625,-35.64453125,-33.69140625,-35.64453125
2,1746313040941.3125,-33.69140625,-39.55078125,-35.15625,-16.6015625
3,1746313040945.2188,-22.4609375,-41.015625,-35.15625,-26.85546875
4,1746313040949.125,-21.97265625,-31.25,-38.57421875,-60.546875
5,1746313040953.0312,-26.3671875,-36.62109375,-36.62109375,-40.52734375
6,1746313040956.9375,-13.671875,-41.9921875,-34.1796875,-14.16015625
7,1746313040960.8438,-23.4375,-41.015625,-39.0625,-26.3671875
8,1746313040964.75,-25.390625,-40.52734375,-39.0625,-39.0625
9,1746313040968.6562,-14.6484375,-43.45703125,-36.1328125,-41.015625
10,1746313040972.5625,-8.7890625,-41.9921875,-38.57421875,-37.109375
11,1746313040976.4688,3.41796875,-36.1328125,-39.55078125,-32.2265625
0,1746313040980.375,-9.27734375,-40.52734375,-35.15625,-38.57421875
1,1746313040984.2812,-13.671875,-42.96875,-36.62109375,-47.36328125
2,1746313040988.1875,25.87890625,-43.9453125,-37.109375,-39.55078125
3,1746313040992.0938,11.71875,-34.66796875,-32.71484375,-14.6484375
4,1746313040996,-0.48828125,-26.85546875,-31.25,-9.27734375
5,1746313040999.9062,20.01953125,-29.296875,-36.1328125,-20.01953125
6,1746313041003.8125,-1.46484375,-27.34375,-35.15625,-11.23046875
7,1746313041007.7188,3.90625,-30.76171875,-33.69140625,-7.8125
8,1746313041011.625,21.484375,-32.2265625,-33.203125,2.9296875
9,1746313041015.5312,8.30078125,-28.80859375,-28.3203125,-0.9765625
10,1746313041019.4375,14.6484375,-31.73828125,-25.390625,-23.92578125
11,1746313041023.3438,19.04296875,-33.69140625,-25.390625,-9.27734375
0,1746313041027.25,22.4609375,-25.390625,-25.87890625,3.90625
1,1746313041031.1562,11.71875,-31.25,-24.4140625,8.30078125
2,1746313041035.0625,-7.32421875,-38.0859375,-23.92578125,4.39453125
3,1746313041038.9688,3.90625,-23.4375,-27.83203125,0.48828125
4,1746313041042.875,0,-29.296875,-28.3203125,19.04296875
5,1746313041046.7812,14.6484375,-29.296875,-30.2734375,13.671875
6,1746313041050.6875,6.8359375,-26.85546875,-34.1796875,-7.32421875
7,1746313041054.5938,-14.16015625,-32.2265625,-31.73828125,-0.9765625
8,1746313041058.5,-5.37109375,-34.66796875,-26.3671875,14.6484375
9,1746313041062.4062,-8.7890625,-30.76171875,-28.3203125,23.92578125
10,1746313041066.3125,1.46484375,-27.34375,-30.76171875,26.85546875
11,1746313041070.2188,-24.4140625,-20.99609375,-30.76171875,32.71484375
0,1746313041074.125,-27.34375,-19.04296875,-30.2734375,39.0625
1,1746313041078.0312,9.765625,-28.80859375,-33.69140625,37.59765625
2,1746313041081.9375,14.6484375,-28.3203125,-35.15625,31.73828125
3,1746313041085.8438,18.06640625,-24.4140625,-30.76171875,31.73828125
4,1746313041089.75,43.9453125,-28.3203125,-27.34375,48.33984375
5,1746313041093.6562,51.7578125,-29.78515625,-24.90234375,49.31640625
6,1746313041097.5625,38.57421875,-25.390625,-23.92578125,48.33984375
7,1746313041101.4688,53.7109375,-24.4140625,-24.4140625,46.875
8,1746313041105.375,44.921875,-23.92578125,-27.34375,35.64453125
9,1746313041109.2812,14.6484375,-23.4375,-33.203125,56.640625
10,1746313041113.1875,38.0859375,-27.34375,-28.80859375,77.1484375
11,1746313041117.0938,23.4375,-32.71484375,-24.4140625,65.91796875
0,1746313041121,-5.859375,-30.2734375,-29.296875,59.08203125
1,1746313041124.9062,6.8359375,-26.85546875,-31.73828125,98.14453125
2,1746313041128.8125,-1.46484375,-29.78515625,-32.71484375,95.703125
3,1746313041132.7188,-1.46484375,-25.87890625,-35.15625,68.359375
4,1746313041136.625,10.25390625,-22.94921875,-38.57421875,77.1484375
5,1746313041140.5312,-44.921875,-32.2265625,-33.203125,73.2421875
6,1746313041144.4375,-38.0859375,-39.0625,-29.78515625,56.15234375
7,1746313041148.3438,-3.41796875,-35.15625,-31.25,56.15234375
8,1746313041152.25,-11.23046875,-32.2265625,-33.69140625,45.8984375
9,1746313041156.1562,-21.97265625,-30.2734375,-35.15625,42.96875
10,1746313041160.0625,-20.99609375,-28.3203125,-28.3203125,52.24609375
11,1746313041163.9688,-24.4140625,-33.69140625,-30.76171875,39.55078125
0,1746313041167.875,-29.78515625,-31.73828125,-33.69140625,22.94921875
1,1746313041171.7812,-31.73828125,-21.97265625,-37.109375,10.7421875
2,1746313041175.6875,-11.23046875,-20.01953125,-36.62109375,24.90234375
3,1746313041179.5938,-22.94921875,-14.16015625,-30.76171875,12.6953125
4,1746313041183.5,-39.0625,-23.92578125,-27.83203125,-20.5078125
5,1746313041187.4062,-41.015625,-40.0390625,-33.203125,-24.90234375
6,1746313041191.3125,-88.8671875,-45.41015625,-35.15625,-8.30078125
7,1746313041195.2188,-52.734375,-34.1796875,-37.59765625,-12.20703125
8,1746313041199.125,-16.11328125,-23.4375,-46.875,-29.78515625
9,1746313041203.0312,-37.59765625,-22.4609375,-43.45703125,-23.92578125
10,1746313041206.9375,-30.2734375,-28.80859375,-32.71484375,-12.20703125
11,1746313041210.8438,2.9296875,-34.1796875,-32.2265625,-16.11328125
0,1746313041214.75,-13.671875,-26.3671875,-40.0390625,-20.01953125
1,1746313041218.6562,-42.48046875,-22.94921875,-35.15625,-4.8828125
2,1746313041222.5625,-23.92578125,-28.80859375,-30.2734375,4.8828125
3,1746313041226.4688,-41.015625,-24.4140625,-31.25,14.16015625
4,1746313041230.375,-58.10546875,-22.4609375,-31.25,14.16015625
5,1746313041234.2812,-65.4296875,-33.203125,-32.71484375,-5.37109375
6,1746313041238.1875,-80.078125,-30.76171875,-32.71484375,6.34765625
7,1746313041242.0938,-76.171875,-30.2734375,-25.390625,19.53125
8,1746313041246,-67.87109375,-32.71484375,-22.4609375,12.6953125
9,1746313041249.9062,-80.078125,-30.76171875,-24.90234375,4.8828125
10,1746313041253.8125,-61.5234375,-28.3203125,-32.71484375,0.48828125
11,1746313041257.7188,-6.8359375,-28.80859375,-34.1796875,15.625
0,1746313041261.625,-17.578125,-27.83203125,-31.25,16.11328125
1,1746313041265.5312,0,-23.92578125,-28.80859375,23.92578125
2,1746313041269.4375,95.21484375,-25.87890625,-31.73828125,20.5078125
3,1746313041273.3438,172.8515625,-18.5546875,-40.52734375,16.11328125
4,1746313041277.25,138.671875,-13.671875,-38.0859375,45.8984375
5,1746313041281.1562,97.16796875,-15.13671875,-32.2265625,57.12890625
6,1746313041285.0625,110.3515625,-19.53125,-31.25,44.921875
7,1746313041288.9688,92.28515625,-9.765625,-21.484375,50.29296875
8,1746313041292.875,67.87109375,0,-9.765625,77.63671875
9,1746313041296.7812,61.5234375,-3.41796875,-17.08984375,76.66015625
10,1746313041300.6875,60.546875,4.39453125,-20.5078125,79.1015625
11,1746313041304.5938,43.9453125,-2.44140625,-10.7421875,54.19921875
0,1746313041308.5,34.66796875,-0.48828125,-18.06640625,41.50390625
1,1746313041312.4062,21.97265625,10.25390625,-28.3203125,61.03515625
2,1746313041316.3125,-18.5546875,7.32421875,-29.78515625,19.53125
3,1746313041320.2188,-44.43359375,-7.32421875,-37.109375,7.32421875
4,1746313041324.125,-25.390625,-26.3671875,-41.50390625,36.62109375
5,1746313041328.0312,-26.3671875,-33.69140625,-41.9921875,37.59765625
6,1746313041331.9375,-60.546875,-26.3671875,-44.921875,0
7,1746313041335.8438,-71.77734375,-23.4375,-43.9453125,-9.765625
8,1746313041339.75,-75.1953125,-27.34375,-34.66796875,29.78515625
9,1746313041343.6562,-68.84765625,-28.80859375,-34.66796875,26.85546875
10,1746313041347.5625,-70.80078125,-30.2734375,-42.48046875,-20.99609375
11,1746313041351.4688,-76.171875,-29.296875,-38.0859375,-1.953125
0,1746313041355.375,-63.4765625,-36.62109375,-33.203125,5.859375
1,1746313041359.2812,-106.4453125,-38.57421875,-35.15625,-5.859375
2,1746313041363.1875,-138.671875,-32.71484375,-36.1328125,2.9296875
3,1746313041367.0938,-122.55859375,-20.99609375,-38.57421875,-21.97265625
4,1746313041371,-119.140625,-16.11328125,-40.0390625,-33.203125
5,1746313041374.9062,-94.7265625,-24.90234375,-31.73828125,-15.13671875
6,1746313041378.8125,-126.953125,-23.92578125,-33.203125,-7.32421875
7,1746313041382.7188,-217.28515625,-19.53125,-37.59765625,-21.484375
8,1746313041386.625,-244.140625,-23.4375,-30.2734375,-20.01953125
9,1746313041390.5312,-233.3984375,-27.34375,-28.3203125,-18.5546875
10,1746313041394.4375,-222.16796875,-29.296875,-28.80859375,-22.4609375
11,1746313041398.3438,-209.47265625,-18.5546875,-24.90234375,-45.8984375
0,1746313041402.25,-176.26953125,-11.71875,-21.484375,-30.2734375
1,1746313041406.1562,-147.4609375,-11.71875,-22.94921875,-3.41796875
2,1746313041410.0625,-131.8359375,-5.859375,-22.94921875,-13.671875
3,1746313041413.9688,-98.6328125,-7.32421875,-12.6953125,-0.9765625
4,1746313041417.875,-106.93359375,-10.25390625,-15.625,-22.4609375
5,1746313041421.7812,-91.796875,-3.90625,-16.6015625,-31.25
6,1746313041425.6875,-66.40625,-5.37109375,-10.7421875,4.39453125
7,1746313041429.5938,-68.84765625,-13.18359375,-15.13671875,-16.11328125
8,1746313041433.5,-74.21875,-13.671875,-20.99609375,-28.3203125
9,1746313041437.4062,-80.078125,-19.04296875,-20.99609375,-32.71484375
10,1746313041441.3125,-74.21875,-15.13671875,-22.4609375,-51.26953125
11,1746313041445.2188,-42.48046875,-7.8125,-24.90234375,-29.78515625
0,1746313041449.125,-29.78515625,-14.16015625,-22.94921875,-32.71484375
1,1746313041453.0312,-42.96875,-23.4375,-15.13671875,-29.78515625
2,1746313041456.9375,-24.90234375,-20.01953125,-17.08984375,-33.203125
3,1746313041460.8438,-73.2421875,-11.23046875,-23.4375,-43.45703125
4,1746313041464.75,-52.24609375,-16.6015625,-24.4140625,-53.22265625
5,1746313041468.6562,-10.7421875,-13.671875,-28.80859375,-84.47265625
6,1746313041472.5625,-68.359375,-11.71875,-27.34375,-74.70703125
7,1746313041476.4688,-49.31640625,-12.20703125,-23.92578125,-75.1953125
8,1746313041480.375,-33.203125,-16.6015625,-20.5078125,-68.359375
9,1746313041484.2812,-17.578125,-13.18359375,-22.4609375,-58.10546875
10,1746313041488.1875,-2.9296875,-13.671875,-25.87890625,-81.0546875
11,1746313041492.0938,5.859375,-27.83203125,-21.97265625,-84.47265625
0,1746313041496,-20.5078125,-27.83203125,-28.3203125,-56.15234375
1,1746313041499.9062,-44.921875,-22.94921875,-34.66796875,-46.875
2,1746313041503.8125,-23.92578125,-28.80859375,-27.83203125,-78.125
3,1746313041507.7188,-29.296875,-39.0625,-27.83203125,-93.26171875
4,1746313041511.625,-11.71875,-36.1328125,-32.2265625,-105.95703125
5,1746313041515.5312,-3.90625,-30.76171875,-35.64453125,-102.5390625
6,1746313041519.4375,-10.25390625,-27.83203125,-35.64453125,-90.33203125
7,1746313041523.3438,1.953125,-28.80859375,-35.15625,-104.00390625
8,1746313041527.25,0.9765625,-33.69140625,-38.57421875,-87.890625
9,1746313041531.1562,10.7421875,-34.1796875,-33.69140625,-83.984375
10,1746313041535.0625,-12.20703125,-35.15625,-35.15625,-84.47265625
11,1746313041538.9688,-48.828125,-33.69140625,-38.57421875,-102.05078125
0,1746313041542.875,-40.0390625,-25.390625,-31.25,-124.51171875
1,1746313041546.7812,-52.24609375,-27.83203125,-30.2734375,-108.88671875
2,1746313041550.6875,-47.8515625,-30.2734375,-33.203125,-79.58984375
3,1746313041554.5938,-28.3203125,-20.01953125,-24.4140625,-62.5
4,1746313041558.5,-9.27734375,-18.06640625,-18.06640625,-70.80078125
5,1746313041562.4062,22.94921875,-20.01953125,-16.6015625,-54.19921875
6,1746313041566.3125,5.37109375,-23.4375,-14.6484375,-32.2265625
7,1746313041570.2188,-1.953125,-18.5546875,-21.484375,-48.33984375
8,1746313041574.125,15.13671875,-15.625,-23.92578125,-47.8515625
9,1746313041578.0312,19.04296875,-17.578125,-20.01953125,-41.015625
10,1746313041581.9375,49.8046875,-19.04296875,-17.08984375,-59.5703125
11,1746313041585.8438,46.875,-27.34375,-20.01953125,-51.7578125
0,1746313041589.75,-19.04296875,-28.3203125,-27.34375,-35.64453125
1,1746313041593.6562,-20.01953125,-22.94921875,-27.34375,-19.04296875
2,1746313041597.5625,-5.37109375,-25.87890625,-20.99609375,-41.9921875
3,1746313041601.4688,-3.90625,-35.64453125,-22.94921875,-76.171875
4,1746313041605.375,15.625,-29.78515625,-26.3671875,-60.546875
5,1746313041609.2812,-2.9296875,-20.01953125,-24.90234375,-70.3125
6,1746313041613.1875,-19.53125,-24.90234375,-29.296875,-75.1953125
7,1746313041617.0938,-4.39453125,-28.80859375,-35.64453125,-61.03515625
8,1746313041621,-20.01953125,-36.62109375,-33.203125,-37.109375
9,1746313041624.9062,-37.59765625,-44.43359375,-32.2265625,-51.26953125
10,1746313041628.8125,-37.59765625,-36.1328125,-36.62109375,-87.890625
11,1746313041632.7188,-40.0390625,-29.78515625,-36.1328125,-95.21484375
0,1746313041636.625,-18.5546875,-35.64453125,-28.3203125,-68.84765625
1,1746313041640.5312,0,-30.76171875,-29.296875,-56.15234375
2,1746313041644.4375,-32.2265625,-23.92578125,-29.296875,-33.69140625
3,1746313041648.3438,-53.22265625,-22.94921875,-27.34375,-51.7578125
4,1746313041652.25,-59.5703125,-27.83203125,-24.90234375,-80.56640625
5,1746313041656.1562,-56.640625,-22.94921875,-23.4375,-62.01171875
6,1746313041660.0625,-28.3203125,-24.4140625,-24.4140625,-46.875
7,1746313041663.9688,-40.52734375,-28.3203125,-22.94921875,-42.48046875
8,1746313041667.875,-39.0625,-22.4609375,-22.4609375,-43.9453125
9,1746313041671.7812,-17.08984375,-20.99609375,-17.578125,-58.59375
10,1746313041675.6875,-33.203125,-24.4140625,-10.7421875,-50.78125
11,1746313041679.5938,-33.203125,-24.90234375,-16.11328125,-35.64453125
0,1746313041683.5,-23.4375,-25.390625,-20.01953125,-48.828125
1,1746313041687.4062,-63.96484375,-30.2734375,-17.578125,-43.45703125
2,1746313041691.3125,-76.171875,-22.94921875,-19.04296875,-33.203125
3,1746313041695.2188,-63.96484375,-16.6015625,-20.5078125,-41.9921875
4,1746313041699.125,-58.10546875,-22.94921875,-20.99609375,-52.24609375
5,1746313041703.0312,-49.8046875,-31.25,-24.4140625,-61.03515625
6,1746313041706.9375,-45.41015625,-23.92578125,-20.5078125,-65.91796875
7,1746313041710.8438,-44.43359375,-21.484375,-21.484375,-52.24609375
8,1746313041714.75,-43.45703125,-30.2734375,-27.83203125,-62.5
9,1746313041718.6562,-48.828125,-32.2265625,-32.71484375,-81.0546875
10,1746313041722.5625,-15.625,-26.85546875,-34.1796875,-86.9140625
11,1746313041726.4688,-8.7890625,-31.73828125,-32.2265625,-102.05078125
0,1746313041730.375,-56.15234375,-35.15625,-35.64453125,-97.65625
1,1746313041734.2812,-57.12890625,-29.78515625,-40.0390625,-91.30859375
2,1746313041738.1875,-73.2421875,-29.78515625,-39.55078125,-108.88671875
3,1746313041742.0938,-62.98828125,-26.3671875,-37.59765625,-106.4453125
4,1746313041746,-45.8984375,-30.2734375,-37.59765625,-114.2578125
5,1746313041749.9062,-48.828125,-39.0625,-32.71484375,-92.7734375
6,1746313041753.8125,-28.3203125,-35.15625,-33.69140625,-58.10546875
7,1746313041757.7188,-10.25390625,-25.87890625,-41.50390625,-43.9453125
8,1746313041761.625,-34.66796875,-25.87890625,-40.52734375,-66.89453125
9,1746313041765.5312,-31.73828125,-33.69140625,-33.69140625,-82.51953125
10,1746313041769.4375,-1.953125,-36.62109375,-33.69140625,-61.5234375
11,1746313041773.3438,-43.9453125,-27.83203125,-38.57421875,-75.1953125
0,1746313041777.25,-45.41015625,-28.80859375,-40.0390625,-80.078125
1,1746313041781.1562,-36.62109375,-33.203125,-40.0390625,-60.05859375
2,1746313041785.0625,-50.78125,-33.203125,-38.57421875,-53.22265625
3,1746313041788.9688,-28.80859375,-38.57421875,-31.73828125,-41.9921875
4,1746313041792.875,-28.80859375,-31.25,-33.69140625,-44.921875
5,1746313041796.7812,-45.8984375,-27.34375,-34.66796875,-50.78125
6,1746313041800.6875,-42.48046875,-40.0390625,-39.0625,-56.640625
7,1746313041804.5938,-35.64453125,-41.9921875,-43.9453125,-62.5
8,1746313041808.5,-50.29296875,-34.1796875,-44.43359375,-55.6640625
9,1746313041812.4062,-73.73046875,-35.64453125,-41.50390625,-67.3828125
10,1746313041816.3125,-87.40234375,-42.96875,-33.69140625,-74.70703125
11,1746313041820.2188,-67.87109375,-36.1328125,-36.62109375,-62.5
0,1746313041824.125,-48.33984375,-29.296875,-36.1328125,-60.546875
1,1746313041828.0312,-48.828125,-31.73828125,-38.0859375,-51.7578125
2,1746313041831.9375,-60.546875,-32.71484375,-34.1796875,-31.25
3,1746313041835.8438,-67.3828125,-34.1796875,-22.4609375,-22.4609375
4,1746313041839.75,-57.12890625,-31.25,-23.4375,-36.62109375
5,1746313041843.6562,-50.29296875,-24.90234375,-20.01953125,-45.8984375
6,1746313041847.5625,-42.48046875,-23.4375,-21.484375,-51.26953125
7,1746313041851.4688,-45.8984375,-17.578125,-28.80859375,-48.828125
8,1746313041855.375,-76.171875,-21.484375,-29.296875,-47.8515625
9,1746313041859.2812,-79.1015625,-33.69140625,-28.80859375,-36.1328125
10,1746313041863.1875,-64.94140625,-30.2734375,-21.97265625,-32.71484375
11,1746313041867.0938,-65.91796875,-26.3671875,-21.97265625,-52.24609375
0,1746313041871,-68.84765625,-30.76171875,-33.203125,-49.8046875
1,1746313041874.9062,-64.453125,-33.69140625,-35.15625,-29.296875
2,1746313041878.8125,-55.6640625,-30.76171875,-36.62109375,-44.43359375
3,1746313041882.7188,-50.78125,-34.1796875,-37.59765625,-38.0859375
4,1746313041886.625,-57.6171875,-32.71484375,-33.203125,-23.4375
5,1746313041890.5312,-71.2890625,-28.80859375,-27.34375,-36.1328125
6,1746313041894.4375,-56.15234375,-36.1328125,-30.76171875,-32.2265625
7,1746313041898.3438,-47.8515625,-33.69140625,-34.1796875,-36.62109375
8,1746313041902.25,-47.8515625,-28.80859375,-32.71484375,-18.5546875
9,1746313041906.1562,-20.01953125,-34.66796875,-33.69140625,-10.25390625
10,1746313041910.0625,-17.08984375,-35.64453125,-37.109375,-18.5546875
11,1746313041913.9688,-44.921875,-30.2734375,-40.52734375,-56.15234375
0,1746313041917.875,-66.89453125,-30.2734375,-34.1796875,-34.66796875
1,1746313041921.7812,-41.50390625,-30.76171875,-31.73828125,6.8359375
2,1746313041925.6875,19.53125,-27.34375,-33.69140625,0
3,1746313041929.5938,-39.0625,-31.25,-30.76171875,-11.23046875
4,1746313041933.5,-58.10546875,-35.15625,-33.203125,-46.38671875
5,1746313041937.4062,-44.921875,-33.203125,-35.15625,-32.71484375
6,1746313041941.3125,-54.6875,-29.296875,-27.83203125,-7.32421875
7,1746313041945.2188,-35.64453125,-29.78515625,-26.85546875,-27.83203125
8,1746313041949.125,-49.31640625,-29.296875,-30.2734375,-29.78515625
9,1746313041953.0312,-54.6875,-38.57421875,-28.3203125,-29.296875
10,1746313041956.9375,-47.8515625,-42.48046875,-24.90234375,-37.59765625
11,1746313041960.8438,-50.78125,-33.69140625,-24.90234375,-62.98828125
0,1746313041964.75,-55.17578125,-35.15625,-30.2734375,-66.40625
1,1746313041968.6562,-42.96875,-38.0859375,-35.64453125,-52.734375
2,1746313041972.5625,-31.73828125,-35.64453125,-35.15625,-44.43359375
3,1746313041976.4688,-34.66796875,-35.64453125,-32.2265625,-48.828125
4,1746313041980.375,-61.5234375,-37.59765625,-34.1796875,-44.43359375
5,1746313041984.2812,-68.359375,-37.59765625,-34.66796875,-37.59765625
6,1746313041988.1875,-45.8984375,-36.62109375,-32.71484375,-42.48046875
7,1746313041992.0938,-57.12890625,-34.66796875,-32.71484375,-31.73828125
8,1746313041996,-24.90234375,-38.57421875,-31.25,-25.390625
9,1746313041999.9062,-9.765625,-41.9921875,-31.25,-13.18359375
10,1746313042003.8125,-76.171875,-41.9921875,-32.71484375,-19.04296875
11,1746313042007.7188,-62.01171875,-33.69140625,-30.2734375,-29.78515625
0,1746313042011.625,-30.76171875,-26.3671875,-28.80859375,-15.625
1,1746313042015.5312,-72.75390625,-23.4375,-32.2265625,-10.7421875
2,1746313042019.4375,-29.78515625,-33.203125,-26.85546875,-4.39453125
3,1746313042023.3438,5.37109375,-36.62109375,-21.484375,26.85546875
4,1746313042027.25,-69.3359375,-31.25,-21.97265625,14.16015625
5,1746313042031.1562,-61.03515625,-26.3671875,-20.5078125,-3.41796875
6,1746313042035.0625,-37.109375,-20.01953125,-23.4375,7.8125
7,1746313042038.9688,-21.484375,-20.5078125,-24.90234375,7.8125
8,1746313042042.875,-41.50390625,-24.90234375,-19.53125,9.765625
9,1746313042046.7812,-64.94140625,-29.78515625,-19.04296875,34.1796875
10,1746313042050.6875,-21.97265625,-28.3203125,-20.5078125,68.84765625
11,1746313042054.5938,-18.06640625,-26.85546875,-21.484375,96.19140625
0,1746313042058.5,-72.265625,-26.3671875,-21.97265625,102.5390625
1,1746313042062.4062,-62.01171875,-24.4140625,-18.06640625,99.12109375
2,1746313042066.3125,-27.34375,-25.390625,-22.94921875,84.9609375
3,1746313042070.2188,-20.01953125,-26.3671875,-24.4140625,75.68359375
4,1746313042074.125,-34.1796875,-32.2265625,-19.04296875,97.16796875
5,1746313042078.0312,-45.8984375,-30.76171875,-18.5546875,72.265625
6,1746313042081.9375,-34.66796875,-27.83203125,-23.92578125,50.29296875
7,1746313042085.8438,-29.296875,-27.34375,-25.390625,55.17578125
8,1746313042089.75,-25.87890625,-25.87890625,-17.578125,53.22265625
9,1746313042093.6562,-39.55078125,-26.3671875,-17.08984375,56.15234375
10,1746313042097.5625,-31.73828125,-27.83203125,-21.97265625,67.3828125
11,1746313042101.4688,-24.4140625,-23.92578125,-20.99609375,42.48046875
0,1746313042105.375,-34.1796875,-20.01953125,-20.99609375,17.08984375
1,1746313042109.2812,-55.6640625,-26.85546875,-25.390625,31.73828125
2,1746313042113.1875,-64.94140625,-29.78515625,-25.390625,23.4375
3,1746313042117.0938,-43.9453125,-23.92578125,-26.85546875,16.6015625
4,1746313042121,-39.55078125,-22.94921875,-23.92578125,26.85546875
5,1746313042124.9062,-56.640625,-22.94921875,-22.94921875,9.27734375
6,1746313042128.8125,-61.03515625,-25.390625,-29.78515625,-62.98828125
7,1746313042132.7188,-49.8046875,-27.34375,-25.390625,-115.72265625
8,1746313042136.625,-14.6484375,-27.83203125,-22.4609375,-141.11328125
9,1746313042140.5312,-14.6484375,-26.3671875,-29.296875,-155.76171875
10,1746313042144.4375,-31.73828125,-19.04296875,-35.64453125,-162.109375
11,1746313042148.3438,-48.33984375,-24.4140625,-33.203125,-174.31640625
0,1746313042152.25,-55.6640625,-34.66796875,-30.76171875,-164.0625
1,1746313042156.1562,-21.484375,-31.25,-26.85546875,-154.78515625
2,1746313042160.0625,-19.04296875,-27.83203125,-26.85546875,-139.6484375
3,1746313042163.9688,-32.71484375,-30.76171875,-26.85546875,-139.16015625
4,1746313042167.875,-31.25,-32.71484375,-22.94921875,-135.25390625
5,1746313042171.7812,-22.4609375,-20.99609375,-24.4140625,-100.09765625
6,1746313042175.6875,-38.0859375,-15.625,-30.2734375,-111.81640625
7,1746313042179.5938,-35.15625,-27.83203125,-29.78515625,-125
8,1746313042183.5,-13.671875,-22.4609375,-26.85546875,-79.58984375
9,1746313042187.4062,-15.625,-20.01953125,-24.4140625,-42.48046875
10,1746313042191.3125,-20.99609375,-30.2734375,-22.94921875,-41.9921875
11,1746313042195.2188,-24.90234375,-32.71484375,-26.3671875,-30.2734375
0,1746313042199.125,-4.39453125,-29.78515625,-31.25,-36.62109375
1,1746313042203.0312,17.08984375,-29.296875,-27.83203125,-36.1328125
2,1746313042206.9375,-5.37109375,-28.80859375,-20.5078125,-22.4609375
3,1746313042210.8438,-24.90234375,-23.92578125,-20.01953125,-8.7890625
4,1746313042214.75,-40.52734375,-17.578125,-23.92578125,-5.859375
5,1746313042218.6562,-47.36328125,-13.18359375,-26.3671875,-18.06640625
6,1746313042222.5625,-34.66796875,-25.87890625,-26.3671875,-10.7421875
7,1746313042226.4688,-62.01171875,-42.96875,-20.01953125,10.25390625
8,1746313042230.375,-54.19921875,-33.203125,-21.97265625,4.8828125
9,1746313042234.2812,-25.390625,-22.94921875,-27.34375,5.859375
10,1746313042238.1875,-25.390625,-27.83203125,-25.390625,18.06640625
11,1746313042242.0938,-28.3203125,-40.52734375,-25.87890625,-4.39453125
0,1746313042246,-4.8828125,-49.31640625,-32.71484375,-34.1796875
1,1746313042249.9062,-9.27734375,-34.1796875,-32.2265625,-39.55078125
2,1746313042253.8125,-55.17578125,-10.25390625,-22.94921875,-44.921875
3,1746313042257.7188,-20.99609375,-7.8125,-23.4375,-20.01953125
4,1746313042261.625,27.34375,-48.33984375,-22.94921875,21.97265625
5,1746313042265.5312,15.625,-71.77734375,-19.04296875,-15.13671875
6,1746313042269.4375,-32.2265625,-56.640625,-20.99609375,-50.29296875
7,1746313042273.3438,-72.75390625,-43.45703125,-22.94921875,-41.9921875
8,1746313042277.25,-75.1953125,-50.78125,-28.80859375,-23.4375
9,1746313042281.1562,-32.71484375,-47.8515625,-26.3671875,-35.15625
10,1746313042285.0625,1.46484375,-13.671875,-33.203125,-54.6875
11,1746313042288.9688,16.11328125,2.44140625,-40.52734375,-49.8046875
0,1746313042292.875,9.765625,-20.01953125,-41.015625,-49.31640625
1,1746313042296.7812,25.390625,-23.4375,-38.0859375,-47.36328125
2,1746313042300.6875,41.015625,-7.8125,-27.83203125,-58.59375
3,1746313042304.5938,-21.97265625,-22.94921875,-20.5078125,-18.5546875
4,1746313042308.5,-4.8828125,-9.27734375,-24.90234375,19.53125
5,1746313042312.4062,38.0859375,3.90625,-23.92578125,-0.9765625
6,1746313042316.3125,-18.5546875,-15.13671875,-24.90234375,-62.01171875
7,1746313042320.2188,-42.96875,-5.859375,-32.71484375,-106.93359375
8,1746313042324.125,-26.85546875,-14.16015625,-18.5546875,-83.0078125
9,1746313042328.0312,-4.8828125,-78.125,-6.34765625,-21.97265625
10,1746313042331.9375,4.8828125,-126.46484375,-33.69140625,-60.546875
11,1746313042335.8438,-93.75,-67.87109375,-49.31640625,-119.140625
0,1746313042339.75,-109.375,29.296875,-28.80859375,-119.140625
1,1746313042343.6562,-83.49609375,36.1328125,-28.80859375,-153.80859375
2,1746313042347.5625,-114.74609375,13.18359375,-27.83203125,-124.51171875
3,1746313042351.4688,-103.02734375,18.06640625,-38.0859375,-81.54296875
4,1746313042355.375,-71.77734375,-2.44140625,-55.6640625,-137.20703125
5,1746313042359.2812,-68.359375,-11.23046875,-47.36328125,-157.2265625
6,1746313042363.1875,-90.8203125,6.8359375,-29.78515625,-144.04296875
7,1746313042367.0938,-99.12109375,-9.765625,-23.4375,-134.765625
8,1746313042371,-73.2421875,-34.66796875,-19.53125,-122.55859375
9,1746313042374.9062,-89.84375,-49.8046875,-33.203125,-142.578125
10,1746313042378.8125,-69.3359375,-30.76171875,-34.66796875,-171.875
11,1746313042382.7188,-38.0859375,-36.62109375,-34.1796875,-170.8984375
0,1746313042386.625,-87.40234375,-10.25390625,-66.40625,-193.359375
1,1746313042390.5312,-161.1328125,75.68359375,-60.546875,-131.8359375
2,1746313042394.4375,-200.1953125,56.640625,-35.15625,-97.65625
3,1746313042398.3438,-175.29296875,6.34765625,-20.01953125,-158.69140625
4,1746313042402.25,-211.9140625,7.32421875,9.27734375,-184.08203125
5,1746313042406.1562,-215.33203125,39.55078125,16.6015625,-151.3671875
6,1746313042410.0625,-214.84375,9.765625,3.90625,-108.3984375
7,1746313042413.9688,-240.234375,14.16015625,-30.76171875,-147.94921875
8,1746313042417.875,-229.4921875,98.14453125,-30.76171875,-177.734375
9,1746313042421.7812,-235.3515625,105.95703125,4.39453125,-130.859375
10,1746313042425.6875,-199.21875,95.703125,4.39453125,-106.93359375
11,1746313042429.5938,-173.33984375,112.3046875,4.39453125,-113.28125
0,1746313042433.5,-138.18359375,80.078125,-9.765625,-114.2578125
1,1746313042437.4062,-106.93359375,71.77734375,-72.265625,-115.234375
2,1746313042441.3125,-102.5390625,123.046875,-36.62109375,-57.6171875
3,1746313042445.2188,-82.51953125,98.14453125,58.10546875,-37.109375
4,1746313042449.125,-100.5859375,78.61328125,89.35546875,-77.1484375
5,1746313042453.0312,-115.72265625,102.5390625,84.9609375,-54.6875
6,1746313042456.9375,-66.89453125,159.66796875,51.7578125,-34.66796875
7,1746313042460.8438,-78.125,176.26953125,47.8515625,-45.41015625
8,1746313042464.75,-94.23828125,123.53515625,37.109375,-20.01953125
9,1746313042468.6562,-126.46484375,92.7734375,14.16015625,16.6015625
10,1746313042472.5625,-118.65234375,99.12109375,29.78515625,30.2734375
11,1746313042476.4688,-95.703125,82.51953125,15.625,-2.9296875
0,1746313042480.375,-84.9609375,73.2421875,-15.13671875,12.6953125
1,1746313042484.2812,-38.57421875,99.609375,-9.27734375,22.94921875
2,1746313042488.1875,-67.3828125,115.72265625,-6.34765625,-27.34375
3,1746313042492.0938,-58.10546875,56.640625,13.671875,-8.7890625
4,1746313042496,0.9765625,-43.9453125,21.97265625,32.2265625
5,1746313042499.9062,-34.66796875,42.96875,-14.6484375,30.76171875
6,1746313042503.8125,-4.39453125,197.265625,2.9296875,95.703125
7,1746313042507.7188,71.77734375,222.16796875,62.98828125,176.26953125
8,1746313042511.625,46.875,173.828125,87.40234375,151.85546875
9,1746313042515.5312,63.96484375,155.2734375,59.08203125,126.46484375
10,1746313042519.4375,138.671875,117.67578125,78.61328125,134.27734375
11,1746313042523.3438,185.546875,65.91796875,96.6796875,146.484375
0,1746313042527.25,164.0625,95.703125,81.0546875,146.484375
1,1746313042531.1562,90.8203125,130.37109375,61.5234375,136.23046875
2,1746313042535.0625,31.73828125,103.02734375,36.1328125,114.2578125
3,1746313042538.9688,48.828125,91.796875,61.03515625,113.76953125
4,1746313042542.875,105.46875,110.3515625,92.7734375,162.109375
5,1746313042546.7812,124.0234375,110.3515625,85.9375,208.984375
6,1746313042550.6875,101.07421875,97.16796875,68.84765625,178.7109375
7,1746313042554.5938,16.6015625,142.578125,66.40625,156.73828125
8,1746313042558.5,-19.04296875,165.0390625,58.10546875,193.84765625
9,1746313042562.4062,-12.6953125,111.328125,65.91796875,168.9453125
10,1746313042566.3125,29.296875,72.75390625,61.03515625,147.94921875
11,1746313042570.2188,44.921875,62.98828125,49.31640625,173.33984375
0,1746313042574.125,-8.30078125,90.8203125,57.6171875,145.5078125
1,1746313042578.0312,11.71875,137.20703125,62.98828125,95.21484375
2,1746313042581.9375,-77.1484375,117.67578125,86.42578125,105.95703125
3,1746313042585.8438,-112.3046875,70.80078125,66.89453125,104.4921875
4,1746313042589.75,-138.18359375,54.6875,18.5546875,75.1953125
5,1746313042593.6562,-237.79296875,61.5234375,-4.39453125,67.87109375
6,1746313042597.5625,-232.91015625,61.03515625,23.4375,71.2890625
7,1746313042601.4688,-235.83984375,15.625,46.38671875,62.01171875
8,1746313042605.375,-196.77734375,19.53125,31.73828125,30.76171875
9,1746313042609.2812,-170.8984375,28.80859375,22.94921875,49.8046875
10,1746313042613.1875,-194.3359375,24.4140625,19.53125,64.94140625
11,1746313042617.0938,-197.265625,6.34765625,17.08984375,71.2890625
0,1746313042621,-161.1328125,17.08984375,9.27734375,59.5703125
1,1746313042624.9062,-132.32421875,53.7109375,-16.11328125,9.765625
2,1746313042628.8125,-162.109375,25.390625,-23.92578125,28.3203125
3,1746313042632.7188,-139.16015625,-3.90625,7.32421875,36.62109375
4,1746313042636.625,-109.86328125,-5.37109375,-2.9296875,16.11328125
5,1746313042640.5312,-153.3203125,-11.71875,-20.5078125,32.2265625
6,1746313042644.4375,-167.96875,-0.9765625,-9.765625,39.0625
7,1746313042648.3438,-198.2421875,-22.94921875,-19.04296875,22.94921875
8,1746313042652.25,-143.06640625,-11.71875,-39.55078125,3.41796875
9,1746313042656.1562,-131.34765625,5.859375,-27.34375,-17.08984375
10,1746313042660.0625,-169.921875,-24.4140625,7.32421875,-27.34375
11,1746313042663.9688,-161.1328125,-68.359375,4.39453125,-29.296875
0,1746313042667.875,-119.140625,-46.38671875,-7.32421875,8.30078125
1,1746313042671.7812,-125,3.90625,-19.53125,47.8515625
2,1746313042675.6875,-133.30078125,7.8125,-33.69140625,60.546875
3,1746313042679.5938,-87.40234375,6.8359375,-39.0625,60.546875
4,1746313042683.5,-143.06640625,18.06640625,-50.29296875,64.453125
5,1746313042687.4062,-183.10546875,-20.01953125,-59.5703125,100.09765625
6,1746313042691.3125,-165.0390625,-65.91796875,-40.52734375,95.21484375
7,1746313042695.2188,-194.3359375,-37.59765625,-28.80859375,60.05859375
8,1746313042699.125,-225.5859375,-32.71484375,-33.203125,71.2890625
9,1746313042703.0312,-193.359375,-32.71484375,-29.296875,65.91796875
10,1746313042706.9375,-148.4375,-18.06640625,-25.87890625,31.73828125
11,1746313042710.8438,-206.0546875,-23.92578125,-30.76171875,29.296875
0,1746313042714.75,-204.58984375,-30.76171875,-26.85546875,37.59765625
1,1746313042718.6562,-142.08984375,-11.23046875,-30.2734375,27.34375
2,1746313042722.5625,-126.46484375,-6.8359375,-35.15625,10.25390625
3,1746313042726.4688,-96.19140625,-31.25,-42.48046875,38.0859375
4,1746313042730.375,-87.890625,-24.4140625,-61.5234375,75.68359375
5,1746313042734.2812,-84.47265625,-36.1328125,-36.62109375,46.875
6,1746313042738.1875,-71.2890625,-72.75390625,-16.6015625,0.48828125
7,1746313042742.0938,-119.140625,-43.9453125,-28.80859375,-21.484375
8,1746313042746,-133.7890625,-8.7890625,-29.296875,-6.34765625
9,1746313042749.9062,-72.75390625,-41.9921875,-45.8984375,-1.46484375
10,1746313042753.8125,-41.50390625,-31.25,-35.64453125,-9.27734375
11,1746313042757.7188,-20.99609375,0.9765625,-25.87890625,-0.9765625
0,1746313042761.625,-32.71484375,-19.04296875,-40.52734375,0
1,1746313042765.5312,-101.07421875,-25.87890625,-45.41015625,18.5546875
2,1746313042769.4375,-101.07421875,-26.3671875,-47.8515625,36.1328125
3,1746313042773.3438,-61.5234375,-54.6875,-48.828125,22.94921875
4,1746313042777.25,-53.7109375,-75.1953125,-46.38671875,12.20703125
5,1746313042781.1562,-49.8046875,-59.08203125,-32.71484375,2.9296875
6,1746313042785.0625,-32.71484375,-32.2265625,-33.69140625,-21.97265625
7,1746313042788.9688,-35.64453125,-18.5546875,-31.73828125,-2.9296875
8,1746313042792.875,-46.38671875,-44.921875,-20.5078125,-0.48828125
9,1746313042796.7812,-58.59375,-42.48046875,-32.71484375,-23.92578125
10,1746313042800.6875,-79.58984375,-18.06640625,-66.89453125,-19.04296875
11,1746313042804.5938,-66.89453125,-22.94921875,-74.21875,15.625
0,1746313042808.5,-40.52734375,-44.921875,-55.17578125,8.7890625
1,1746313042812.4062,-42.96875,-43.45703125,-31.25,-19.53125
2,1746313042816.3125,-29.78515625,-20.01953125,-14.16015625,-30.76171875
3,1746313042820.2188,-29.296875,-42.48046875,-34.66796875,-25.390625
4,1746313042824.125,-47.36328125,-50.29296875,-62.98828125,18.06640625
5,1746313042828.0312,-31.73828125,-55.6640625,-63.4765625,6.8359375
6,1746313042831.9375,-63.96484375,-76.66015625,-45.8984375,-21.97265625
7,1746313042835.8438,-67.87109375,-43.9453125,-36.1328125,-20.01953125
8,1746313042839.75,-70.80078125,-11.23046875,-42.96875,-19.53125
9,1746313042843.6562,-73.73046875,-38.0859375,-48.33984375,-1.953125
10,1746313042847.5625,-36.62109375,-54.6875,-51.26953125,14.16015625
11,1746313042851.4688,-14.16015625,-21.97265625,-48.33984375,-11.71875
0,1746313042855.375,7.8125,-9.765625,-46.38671875,3.90625
1,1746313042859.2812,4.8828125,-16.11328125,-74.70703125,83.984375
2,1746313042863.1875,-19.53125,-25.87890625,-92.28515625,47.8515625
3,1746313042867.0938,-41.015625,-37.59765625,-31.25,-23.4375
4,1746313042871,-42.96875,-42.96875,16.6015625,-14.16015625
5,1746313042874.9062,-10.25390625,-37.59765625,6.34765625,5.859375
6,1746313042878.8125,-4.8828125,-36.62109375,-14.16015625,19.53125
7,1746313042882.7188,-12.20703125,-44.43359375,-34.66796875,3.90625
8,1746313042886.625,0.9765625,-41.015625,-52.734375,-7.32421875
9,1746313042890.5312,4.8828125,-10.25390625,-67.87109375,-16.6015625
10,1746313042894.4375,-22.94921875,-1.46484375,-48.828125,-30.76171875
11,1746313042898.3438,-26.85546875,-19.04296875,-33.69140625,-28.3203125
0,1746313042902.25,-10.25390625,-35.64453125,-22.4609375,-1.46484375
1,1746313042906.1562,-13.671875,-50.29296875,-21.97265625,-9.27734375
2,1746313042910.0625,6.8359375,-42.48046875,-60.546875,-42.48046875
3,1746313042913.9688,-33.203125,-16.11328125,-61.5234375,-37.59765625
4,1746313042917.875,-59.5703125,-13.671875,-36.1328125,-39.55078125
5,1746313042921.7812,-19.04296875,-3.90625,-29.78515625,-26.85546875
6,1746313042925.6875,-19.53125,-3.90625,-29.78515625,-9.27734375
7,1746313042929.5938,4.39453125,-29.296875,-41.50390625,-21.484375
8,1746313042933.5,-14.6484375,-47.8515625,-50.78125,-20.99609375
9,1746313042937.4062,-73.2421875,-54.19921875,-40.0390625,-27.34375
10,1746313042941.3125,-69.3359375,-38.57421875,-39.55078125,-44.921875
11,1746313042945.2188,5.859375,-27.83203125,-37.109375,-53.7109375
0,1746313042949.125,-29.78515625,-42.96875,-30.76171875,-25.390625
1,1746313042953.0312,-95.21484375,-45.8984375,-62.98828125,-6.8359375
2,1746313042956.9375,-30.76171875,-31.25,-96.19140625,-30.76171875
3,1746313042960.8438,-27.83203125,-35.15625,-64.94140625,-34.1796875
4,1746313042964.75,-90.8203125,-46.875,-16.11328125,-44.43359375
5,1746313042968.6562,-118.65234375,-43.45703125,-21.484375,-61.5234375
6,1746313042972.5625,-79.58984375,-35.64453125,-38.0859375,-74.21875
7,1746313042976.4688,-54.6875,-36.62109375,-49.31640625,-73.2421875
8,1746313042980.375,-74.70703125,-41.9921875,-52.734375,-48.33984375
9,1746313042984.2812,-95.21484375,-48.33984375,-46.875,-18.5546875
10,1746313042988.1875,-178.7109375,-48.828125,-46.38671875,-57.6171875
11,1746313042992.0938,-201.66015625,-43.45703125,-48.33984375,-103.02734375
0,1746313042996,-190.4296875,-46.38671875,-43.9453125,-81.54296875
1,1746313042999.9062,-153.80859375,-47.36328125,-35.15625,-81.0546875
2,1746313043003.8125,-153.3203125,-48.828125,-34.1796875,-94.23828125
3,1746313043007.7188,-58.59375,-49.31640625,-33.69140625,-83.49609375
4,1746313043011.625,-36.62109375,-51.26953125,-34.1796875,-113.76953125
5,1746313043015.5312,-112.3046875,-61.5234375,-30.2734375,-124.0234375
6,1746313043019.4375,-81.0546875,-68.359375,-24.90234375,-111.328125
7,1746313043023.3438,-114.74609375,-65.91796875,-29.296875,-148.4375
8,1746313043027.25,-56.15234375,-58.10546875,-31.73828125,-186.03515625
9,1746313043031.1562,-57.6171875,-49.8046875,-33.203125,-202.63671875
10,1746313043035.0625,-109.86328125,-56.640625,-32.71484375,-196.2890625
11,1746313043038.9688,-75.1953125,-55.17578125,-37.109375,-185.05859375
0,1746313043042.875,-127.9296875,-56.15234375,-34.1796875,-175.29296875
1,1746313043046.7812,-86.42578125,-63.4765625,-20.99609375,-143.5546875
2,1746313043050.6875,-76.171875,-58.10546875,-40.0390625,-131.8359375
3,1746313043054.5938,-144.53125,-53.7109375,-43.45703125,-147.94921875
4,1746313043058.5,-123.046875,-55.6640625,-11.71875,-140.625
5,1746313043062.4062,-93.75,-47.36328125,-13.671875,-135.7421875
6,1746313043066.3125,-113.28125,-39.55078125,-27.83203125,-139.6484375
7,1746313043070.2188,-143.06640625,-39.55078125,-37.59765625,-140.625
8,1746313043074.125,-144.04296875,-41.50390625,-40.0390625,-139.16015625
9,1746313043078.0312,-131.8359375,-47.8515625,-35.64453125,-111.81640625
10,1746313043081.9375,-106.93359375,-57.12890625,-28.3203125,-104.00390625
11,1746313043085.8438,-71.77734375,-51.26953125,-42.48046875,-76.171875
0,1746313043089.75,-37.59765625,-64.94140625,-51.26953125,-71.77734375
1,1746313043093.6562,-73.73046875,-82.03125,-26.85546875,-70.3125
2,1746313043097.5625,-124.51171875,-64.94140625,-27.34375,-38.0859375
3,1746313043101.4688,-106.4453125,-48.828125,-44.921875,-35.64453125
4,1746313043105.375,-53.7109375,-59.08203125,-45.8984375,-24.90234375
5,1746313043109.2812,-6.34765625,-72.265625,-37.59765625,-10.7421875
6,1746313043113.1875,23.92578125,-69.82421875,-40.52734375,12.20703125
7,1746313043117.0938,13.671875,-63.4765625,-37.59765625,-4.39453125
8,1746313043121,-15.13671875,-57.12890625,-18.5546875,-14.6484375
9,1746313043124.9062,-11.23046875,-51.7578125,-12.20703125,14.16015625
10,1746313043128.8125,15.625,-60.546875,-22.4609375,20.5078125
11,1746313043132.7188,29.78515625,-67.87109375,-40.0390625,24.4140625
0,1746313043136.625,-2.9296875,-62.98828125,-39.0625,32.71484375
1,1746313043140.5312,32.2265625,-62.98828125,-30.2734375,69.82421875
2,1746313043144.4375,61.5234375,-62.5,-28.80859375,70.3125
3,1746313043148.3438,46.38671875,-49.31640625,-30.76171875,37.59765625
4,1746313043152.25,37.109375,-36.1328125,-31.73828125,41.9921875
5,1746313043156.1562,48.33984375,-41.015625,-28.3203125,63.4765625
6,1746313043160.0625,68.84765625,-55.17578125,-32.2265625,75.1953125
7,1746313043163.9688,60.05859375,-75.68359375,-57.6171875,56.640625
8,1746313043167.875,52.734375,-100.5859375,-92.28515625,38.0859375
9,1746313043171.7812,39.55078125,-124.51171875,-117.67578125,10.7421875
10,1746313043175.6875,40.0390625,-130.859375,-120.60546875,9.27734375
11,1746313043179.5938,37.59765625,-114.2578125,-122.55859375,24.90234375
0,1746313043183.5,98.6328125,-102.5390625,-127.44140625,13.18359375
1,1746313043187.4062,170.8984375,-94.7265625,-116.2109375,-8.7890625
2,1746313043191.3125,168.9453125,-89.35546875,-108.3984375,-14.6484375
3,1746313043195.2188,192.3828125,-83.984375,-110.3515625,4.39453125
4,1746313043199.125,195.3125,-78.125,-105.46875,10.25390625
5,1746313043203.0312,195.80078125,-73.2421875,-94.7265625,29.78515625
6,1746313043206.9375,213.37890625,-62.01171875,-92.7734375,60.546875
7,1746313043210.8438,213.37890625,-56.15234375,-92.7734375,39.0625
8,1746313043214.75,175.78125,-59.08203125,-92.28515625,8.30078125
9,1746313043218.6562,172.36328125,-55.17578125,-90.8203125,0.48828125
10,1746313043222.5625,198.73046875,-44.921875,-85.44921875,14.6484375
11,1746313043226.4688,172.36328125,-41.9921875,-83.49609375,13.671875
0,1746313043230.375,125.9765625,-44.921875,-78.61328125,-2.9296875
1,1746313043234.2812,95.21484375,-41.9921875,-74.70703125,11.71875
2,1746313043238.1875,135.7421875,-37.59765625,-78.61328125,20.01953125
3,1746313043242.0938,127.9296875,-34.1796875,-78.125,0
4,1746313043246,125.9765625,-35.15625,-70.80078125,-12.6953125
5,1746313043249.9062,143.06640625,-33.203125,-66.89453125,-20.99609375
6,1746313043253.8125,134.765625,-20.99609375,-74.21875,-17.08984375
7,1746313043257.7188,142.08984375,-11.71875,-75.68359375,-19.53125
8,1746313043261.625,129.39453125,-16.11328125,-59.08203125,-31.73828125
9,1746313043265.5312,81.0546875,-22.4609375,-51.26953125,-24.90234375
10,1746313043269.4375,93.26171875,-22.94921875,-54.6875,-22.4609375
11,1746313043273.3438,119.140625,-21.97265625,-55.17578125,-27.83203125
0,1746313043277.25,87.890625,-19.04296875,-57.6171875,-7.8125
1,1746313043281.1562,113.76953125,-19.04296875,-58.59375,-46.38671875
2,1746313043285.0625,132.32421875,-25.87890625,-60.05859375,-59.08203125
3,1746313043288.9688,44.43359375,-30.2734375,-59.08203125,-16.6015625
4,1746313043292.875,49.31640625,-26.85546875,-55.6640625,-31.25
5,1746313043296.7812,67.87109375,-26.3671875,-50.78125,-51.7578125
6,1746313043300.6875,35.64453125,-32.71484375,-52.24609375,-36.1328125
7,1746313043304.5938,47.36328125,-39.55078125,-54.19921875,-37.59765625
8,1746313043308.5,54.19921875,-40.0390625,-52.734375,-29.78515625
9,1746313043312.4062,42.96875,-35.64453125,-57.12890625,-34.1796875
10,1746313043316.3125,40.0390625,-26.3671875,-59.08203125,-46.38671875
11,1746313043320.2188,28.3203125,-33.69140625,-56.640625,-47.36328125
0,1746313043324.125,28.3203125,-47.8515625,-56.640625,-41.50390625
1,1746313043328.0312,52.24609375,-46.38671875,-56.15234375,-35.64453125
2,1746313043331.9375,40.52734375,-46.38671875,-51.26953125,-44.921875
3,1746313043335.8438,50.29296875,-41.9921875,-52.734375,-42.48046875
4,1746313043339.75,1.46484375,-47.36328125,-46.875,-28.3203125
5,1746313043343.6562,-14.6484375,-47.8515625,-41.015625,-45.41015625
6,1746313043347.5625,26.3671875,-43.9453125,-41.9921875,-46.875
7,1746313043351.4688,15.13671875,-45.8984375,-44.921875,-48.33984375
8,1746313043355.375,26.85546875,-46.875,-51.26953125,-29.296875
9,1746313043359.2812,25.87890625,-42.96875,-47.36328125,-22.94921875
10,1746313043363.1875,-4.8828125,-41.50390625,-36.62109375,-41.50390625
11,1746313043367.0938,-4.39453125,-42.48046875,-47.36328125,-45.41015625
0,1746313043371,18.06640625,-44.43359375,-51.26953125,-42.48046875
1,1746313043374.9062,5.859375,-49.31640625,-39.0625,-47.36328125
2,1746313043378.8125,-0.48828125,-47.8515625,-35.64453125,-38.0859375
3,1746313043382.7188,12.20703125,-49.31640625,-39.0625,-42.96875
4,1746313043386.625,22.94921875,-53.22265625,-43.45703125,-60.546875
5,1746313043390.5312,23.92578125,-43.45703125,-44.921875,-65.91796875
6,1746313043394.4375,36.62109375,-41.9921875,-48.828125,-62.01171875
7,1746313043398.3438,49.8046875,-50.29296875,-47.8515625,-54.19921875
8,1746313043402.25,-2.44140625,-46.875,-44.43359375,-63.96484375
9,1746313043406.1562,-13.18359375,-50.78125,-42.96875,-53.22265625
10,1746313043410.0625,3.41796875,-53.7109375,-43.45703125,-41.015625
11,1746313043413.9688,0.9765625,-47.8515625,-36.62109375,-47.36328125
0,1746313043417.875,35.64453125,-46.875,-39.0625,-45.41015625
1,1746313043421.7812,93.26171875,-47.36328125,-48.33984375,-48.828125
2,1746313043425.6875,65.91796875,-55.17578125,-54.19921875,-54.6875
3,1746313043429.5938,50.29296875,-62.98828125,-52.24609375,-45.41015625
4,1746313043433.5,72.265625,-55.6640625,-48.828125,-49.8046875
5,1746313043437.4062,58.59375,-49.31640625,-52.734375,-67.3828125
6,1746313043441.3125,69.82421875,-48.33984375,-54.19921875,-60.05859375
7,1746313043445.2188,72.75390625,-53.22265625,-49.8046875,-52.24609375
8,1746313043449.125,27.34375,-56.640625,-49.8046875,-59.08203125
9,1746313043453.0312,28.3203125,-56.640625,-52.734375,-43.9453125
10,1746313043456.9375,49.8046875,-53.7109375,-49.8046875,-29.296875
11,1746313043460.8438,50.78125,-52.734375,-46.38671875,-49.31640625
0,1746313043464.75,24.90234375,-57.12890625,-47.8515625,-59.08203125
1,1746313043468.6562,22.94921875,-53.22265625,-44.921875,-54.6875
2,1746313043472.5625,34.66796875,-44.921875,-43.45703125,-47.8515625
3,1746313043476.4688,25.390625,-45.8984375,-47.36328125,-39.55078125
4,1746313043480.375,-8.7890625,-49.31640625,-45.41015625,-47.36328125
5,1746313043484.2812,-12.6953125,-50.78125,-45.41015625,-66.40625
6,1746313043488.1875,9.27734375,-49.31640625,-52.24609375,-60.05859375
7,1746313043492.0938,0.48828125,-49.8046875,-53.7109375,-47.36328125
8,1746313043496,-1.953125,-49.8046875,-41.9921875,-55.17578125
9,1746313043499.9062,-27.83203125,-47.8515625,-35.15625,-87.40234375
10,1746313043503.8125,-33.203125,-48.33984375,-38.57421875,-110.3515625
11,1746313043507.7188,7.32421875,-53.7109375,-39.0625,-73.2421875
0,1746313043511.625,-1.46484375,-55.6640625,-41.9921875,-47.36328125
1,1746313043515.5312,-57.6171875,-55.6640625,-51.7578125,-83.0078125
2,1746313043519.4375,-41.50390625,-56.15234375,-49.31640625,-103.515625
3,1746313043523.3438,-18.5546875,-52.24609375,-42.96875,-86.9140625
4,1746313043527.25,-9.765625,-56.15234375,-44.43359375,-75.1953125
5,1746313043531.1562,-11.23046875,-54.19921875,-44.43359375,-70.80078125
6,1746313043535.0625,-9.765625,-49.31640625,-41.015625,-75.1953125
7,1746313043538.9688,7.8125,-45.8984375,-40.0390625,-83.984375
8,1746313043542.875,-8.7890625,-45.41015625,-44.921875,-80.56640625
9,1746313043546.7812,-7.32421875,-46.875,-45.41015625,-68.84765625
10,1746313043550.6875,52.734375,-52.734375,-41.015625,-68.84765625
11,1746313043554.5938,24.4140625,-55.6640625,-39.0625,-69.3359375
0,1746313043558.5,-67.3828125,-49.31640625,-38.57421875,-77.63671875
1,1746313043562.4062,-33.203125,-47.36328125,-37.59765625,-69.82421875
2,1746313043566.3125,-20.5078125,-53.7109375,-40.52734375,-65.91796875
3,1746313043570.2188,-37.109375,-56.15234375,-44.43359375,-76.171875
4,1746313043574.125,-26.85546875,-55.17578125,-48.33984375,-85.9375
5,1746313043578.0312,-9.27734375,-53.22265625,-44.43359375,-70.3125
6,1746313043581.9375,12.20703125,-53.7109375,-41.9921875,-53.22265625
7,1746313043585.8438,-28.3203125,-59.5703125,-46.38671875,-77.63671875
8,1746313043589.75,-7.32421875,-59.08203125,-49.31640625,-98.14453125
9,1746313043593.6562,-20.99609375,-62.01171875,-49.31640625,-88.37890625
10,1746313043597.5625,-68.84765625,-63.96484375,-51.26953125,-88.8671875
11,1746313043601.4688,-34.1796875,-59.08203125,-50.29296875,-94.23828125
0,1746313043605.375,-37.109375,-53.7109375,-45.41015625,-82.03125
1,1746313043609.2812,-31.25,-50.29296875,-44.43359375,-80.078125
2,1746313043613.1875,-19.04296875,-55.6640625,-41.9921875,-84.9609375
3,1746313043617.0938,-13.18359375,-52.24609375,-44.43359375,-89.35546875
4,1746313043621,-4.8828125,-43.45703125,-54.6875,-88.8671875
5,1746313043624.9062,-5.37109375,-44.921875,-54.6875,-83.49609375
6,1746313043628.8125,-35.64453125,-51.26953125,-50.29296875,-77.63671875
7,1746313043632.7188,-35.64453125,-58.10546875,-53.7109375,-73.73046875
8,1746313043636.625,-24.90234375,-58.10546875,-48.33984375,-76.66015625
9,1746313043640.5312,-8.7890625,-54.19921875,-41.9921875,-81.0546875
10,1746313043644.4375,-12.20703125,-50.29296875,-44.43359375,-89.84375
11,1746313043648.3438,-42.96875,-53.22265625,-45.41015625,-88.8671875
0,1746313043652.25,-49.8046875,-52.24609375,-46.38671875,-84.47265625
1,1746313043656.1562,-36.62109375,-49.31640625,-50.78125,-84.9609375
2,1746313043660.0625,-1.953125,-50.78125,-47.8515625,-85.9375
3,1746313043663.9688,-3.90625,-49.31640625,-43.9453125,-80.078125
4,1746313043667.875,-39.0625,-56.640625,-43.45703125,-78.125
5,1746313043671.7812,-38.0859375,-51.7578125,-47.8515625,-86.42578125
6,1746313043675.6875,-22.4609375,-53.7109375,-53.7109375,-75.1953125
7,1746313043679.5938,-21.484375,-67.87109375,-50.78125,-80.078125
8,1746313043683.5,-47.8515625,-60.546875,-47.36328125,-102.05078125
9,1746313043687.4062,27.34375,-55.6640625,-47.8515625,-96.6796875
10,1746313043691.3125,30.76171875,-55.17578125,-52.734375,-91.796875
11,1746313043695.2188,-92.28515625,-52.734375,-52.734375,-84.9609375
0,1746313043699.125,-64.453125,-51.26953125,-43.45703125,-66.89453125
1,1746313043703.0312,-15.13671875,-59.08203125,-40.0390625,-73.2421875
2,1746313043706.9375,-20.01953125,-60.05859375,-37.59765625,-97.16796875
3,1746313043710.8438,-30.76171875,-54.19921875,-36.62109375,-91.30859375
4,1746313043714.75,-33.69140625,-53.22265625,-36.62109375,-56.15234375
5,1746313043718.6562,-25.390625,-53.22265625,-41.50390625,-65.4296875
6,1746313043722.5625,-30.2734375,-53.22265625,-44.43359375,-69.82421875
7,1746313043726.4688,-2.9296875,-53.7109375,-45.41015625,-50.78125
8,1746313043730.375,-1.46484375,-58.59375,-46.875,-77.63671875
9,1746313043734.2812,-61.03515625,-61.5234375,-42.96875,-91.30859375
10,1746313043738.1875,-54.6875,-52.734375,-43.9453125,-78.125
11,1746313043742.0938,-20.99609375,-51.26953125,-41.50390625,-67.3828125
0,1746313043746,-13.18359375,-62.5,-37.109375,-59.08203125
1,1746313043749.9062,-24.90234375,-60.05859375,-38.57421875,-68.359375
2,1746313043753.8125,-27.34375,-51.26953125,-42.96875,-70.3125
3,1746313043757.7188,-10.25390625,-52.24609375,-42.96875,-50.78125
4,1746313043761.625,-21.97265625,-54.6875,-42.48046875,-32.71484375
5,1746313043765.5312,-43.45703125,-50.29296875,-40.52734375,-36.62109375
6,1746313043769.4375,-14.6484375,-49.31640625,-38.0859375,-45.41015625
7,1746313043773.3438,-11.71875,-55.17578125,-41.50390625,-41.9921875
8,1746313043777.25,-42.48046875,-57.6171875,-42.48046875,-40.52734375
9,1746313043781.1562,-45.8984375,-56.15234375,-44.43359375,-29.296875
10,1746313043785.0625,-42.48046875,-54.19921875,-46.38671875,-41.9921875
11,1746313043788.9688,-28.80859375,-48.828125,-44.43359375,-54.19921875
0,1746313043792.875,-27.83203125,-51.26953125,-43.9453125,-44.921875
1,1746313043796.7812,-5.37109375,-58.10546875,-38.57421875,-50.29296875
2,1746313043800.6875,-5.859375,-54.19921875,-39.0625,-77.63671875
3,1746313043804.5938,-38.0859375,-58.59375,-42.48046875,-48.33984375
4,1746313043808.5,-30.2734375,-55.17578125,-49.31640625,-46.875
5,1746313043812.4062,-29.78515625,-51.7578125,-50.78125,-76.171875
6,1746313043816.3125,-17.578125,-59.5703125,-45.41015625,-60.05859375
7,1746313043820.2188,-20.99609375,-57.6171875,-49.31640625,-51.7578125
8,1746313043824.125,-23.4375,-52.24609375,-53.22265625,-61.5234375
9,1746313043828.0312,31.25,-55.17578125,-51.26953125,-72.75390625
10,1746313043831.9375,2.44140625,-62.01171875,-44.921875,-79.58984375
11,1746313043835.8438,-83.0078125,-61.5234375,-36.62109375,-79.58984375
0,1746313043839.75,-58.10546875,-59.08203125,-37.109375,-62.98828125
1,1746313043843.6562,-21.484375,-56.15234375,-44.921875,-59.5703125
2,1746313043847.5625,-23.4375,-56.640625,-44.43359375,-68.359375
3,1746313043851.4688,-24.4140625,-60.05859375,-47.8515625,-64.453125
4,1746313043855.375,-36.1328125,-59.08203125,-49.31640625,-64.94140625
5,1746313043859.2812,-19.53125,-60.05859375,-46.38671875,-63.96484375
6,1746313043863.1875,-21.484375,-58.10546875,-46.875,-59.5703125
7,1746313043867.0938,-36.62109375,-54.19921875,-44.43359375,-54.6875
8,1746313043871,-18.5546875,-53.22265625,-38.0859375,-46.875
9,1746313043874.9062,12.20703125,-52.734375,-37.59765625,-43.9453125
10,1746313043878.8125,7.32421875,-52.24609375,-43.45703125,-59.08203125
11,1746313043882.7188,-17.578125,-55.17578125,-46.38671875,-55.6640625
0,1746313043886.625,16.6015625,-51.7578125,-42.96875,-56.15234375
1,1746313043890.5312,-18.06640625,-46.875,-36.62109375,-60.05859375
2,1746313043894.4375,-59.5703125,-50.29296875,-33.69140625,-62.5
3,1746313043898.3438,-32.2265625,-48.828125,-33.203125,-71.2890625
4,1746313043902.25,-34.66796875,-47.8515625,-35.64453125,-75.68359375
5,1746313043906.1562,-24.4140625,-43.45703125,-40.52734375,-82.03125
6,1746313043910.0625,0,-41.50390625,-43.9453125,-70.80078125
7,1746313043913.9688,-4.39453125,-51.26953125,-48.33984375,-75.1953125
8,1746313043917.875,-27.83203125,-55.17578125,-52.24609375,-76.171875
9,1746313043921.7812,-28.3203125,-50.29296875,-51.7578125,-60.05859375
10,1746313043925.6875,-14.16015625,-45.41015625,-45.8984375,-71.2890625
11,1746313043929.5938,0.9765625,-45.8984375,-46.38671875,-92.28515625
0,1746313043933.5,78.125,-51.7578125,-46.875,-91.796875
1,1746313043937.4062,-3.41796875,-51.26953125,-43.9453125,-86.42578125
2,1746313043941.3125,-83.49609375,-52.24609375,-42.96875,-79.58984375
3,1746313043945.2188,-30.76171875,-52.24609375,-46.38671875,-76.171875
4,1746313043949.125,-23.92578125,-52.24609375,-45.8984375,-79.1015625
5,1746313043953.0312,-10.7421875,-59.08203125,-44.43359375,-75.68359375
6,1746313043956.9375,-10.7421875,-60.05859375,-44.43359375,-65.4296875
7,1746313043960.8438,-18.06640625,-56.640625,-41.9921875,-63.4765625
8,1746313043964.75,-13.18359375,-49.31640625,-43.45703125,-70.3125
9,1746313043968.6562,9.27734375,-47.8515625,-43.45703125,-68.359375
10,1746313043972.5625,-11.23046875,-51.7578125,-41.9921875,-71.2890625
11,1746313043976.4688,-27.83203125,-57.6171875,-44.921875,-79.58984375
0,1746313043980.375,-8.7890625,-56.640625,-46.38671875,-79.58984375
1,1746313043984.2812,-10.7421875,-45.41015625,-40.52734375,-84.9609375
2,1746313043988.1875,-14.16015625,-46.38671875,-38.57421875,-64.94140625
3,1746313043992.0938,-29.296875,-49.8046875,-36.1328125,-50.29296875
4,1746313043996,-13.18359375,-48.33984375,-39.0625,-61.5234375
5,1746313043999.9062,-17.578125,-52.734375,-46.875,-80.56640625
6,1746313044003.8125,-24.90234375,-58.10546875,-47.36328125,-82.51953125
7,1746313044007.7188,-16.6015625,-55.17578125,-42.96875,-68.359375
8,1746313044011.625,10.25390625,-52.734375,-41.9921875,-83.49609375
9,1746313044015.5312,-28.3203125,-57.12890625,-46.38671875,-88.8671875
10,1746313044019.4375,-86.42578125,-51.7578125,-47.8515625,-73.2421875
11,1746313044023.3438,-48.828125,-48.33984375,-47.36328125,-63.96484375
0,1746313044027.25,-32.71484375,-47.8515625,-48.33984375,-58.10546875
1,1746313044031.1562,-22.94921875,-45.8984375,-48.828125,-70.3125
2,1746313044035.0625,-11.71875,-47.36328125,-44.921875,-62.5
3,1746313044038.9688,-36.62109375,-45.41015625,-42.96875,-43.45703125
4,1746313044042.875,-35.64453125,-42.48046875,-48.33984375,-62.5
5,1746313044046.7812,-24.4140625,-46.38671875,-50.78125,-75.68359375
6,1746313044050.6875,-12.6953125,-48.33984375,-53.22265625,-70.80078125
7,1746313044054.5938,-22.4609375,-52.24609375,-52.24609375,-70.80078125
8,1746313044058.5,-44.921875,-52.734375,-49.31640625,-67.3828125
9,1746313044062.4062,-38.0859375,-49.31640625,-51.26953125,-71.77734375
10,1746313044066.3125,-11.23046875,-50.78125,-46.38671875,-49.8046875
11,1746313044070.2188,-5.859375,-45.8984375,-42.48046875,-42.96875
0,1746313044074.125,-39.0625,-49.31640625,-48.33984375,-74.70703125
1,1746313044078.0312,-37.59765625,-59.5703125,-49.31640625,-80.56640625
2,1746313044081.9375,-32.71484375,-58.59375,-47.36328125,-78.61328125
3,1746313044085.8438,-27.83203125,-55.17578125,-51.26953125,-79.1015625
4,1746313044089.75,-15.625,-53.22265625,-46.875,-67.87109375
5,1746313044093.6562,-10.25390625,-48.828125,-42.96875,-62.01171875
6,1746313044097.5625,-20.99609375,-47.8515625,-43.9453125,-72.75390625
7,1746313044101.4688,-10.7421875,-48.33984375,-40.52734375,-70.3125
8,1746313044105.375,-5.859375,-45.8984375,-41.015625,-56.15234375
9,1746313044109.2812,-33.69140625,-51.26953125,-40.0390625,-60.05859375
10,1746313044113.1875,-15.625,-50.29296875,-39.0625,-67.3828125
11,1746313044117.0938,-11.71875,-46.875,-40.52734375,-61.5234375
0,1746313044121,-41.9921875,-48.33984375,-44.43359375,-62.01171875
1,1746313044124.9062,-48.828125,-47.36328125,-45.41015625,-67.87109375
2,1746313044128.8125,-35.15625,-48.828125,-43.9453125,-60.05859375
3,1746313044132.7188,-25.87890625,-48.828125,-42.48046875,-56.15234375
4,1746313044136.625,-30.76171875,-44.43359375,-37.59765625,-72.75390625
5,1746313044140.5312,-21.97265625,-40.52734375,-38.57421875,-57.6171875
6,1746313044144.4375,-17.08984375,-44.921875,-41.015625,-45.41015625
7,1746313044148.3438,-22.94921875,-44.921875,-41.015625,-63.4765625
8,1746313044152.25,-20.01953125,-43.9453125,-40.52734375,-62.5
9,1746313044156.1562,-2.44140625,-48.33984375,-39.0625,-50.78125
10,1746313044160.0625,-2.44140625,-48.828125,-43.9453125,-56.15234375
11,1746313044163.9688,-3.41796875,-48.33984375,-44.43359375,-48.828125
0,1746313044167.875,5.859375,-47.8515625,-41.9921875,-57.6171875
1,1746313044171.7812,3.90625,-47.8515625,-43.9453125,-63.96484375
2,1746313044175.6875,2.44140625,-43.45703125,-43.45703125,-48.33984375
3,1746313044179.5938,-7.32421875,-44.43359375,-44.43359375,-55.17578125
4,1746313044183.5,-18.5546875,-47.8515625,-42.96875,-62.5
5,1746313044187.4062,-41.50390625,-46.38671875,-40.52734375,-64.453125
6,1746313044191.3125,-46.38671875,-46.38671875,-41.50390625,-61.03515625
7,1746313044195.2188,-25.87890625,-45.41015625,-41.9921875,-51.26953125
8,1746313044199.125,-58.59375,-48.33984375,-43.45703125,-53.7109375
9,1746313044203.0312,-79.58984375,-51.7578125,-43.9453125,-63.4765625
10,1746313044206.9375,-53.7109375,-58.10546875,-42.96875,-56.640625
11,1746313044210.8438,-55.17578125,-61.5234375,-44.921875,-58.59375
0,1746313044214.75,-61.5234375,-59.5703125,-49.31640625,-60.05859375
1,1746313044218.6562,-64.453125,-60.05859375,-49.8046875,-62.01171875
2,1746313044222.5625,-83.984375,-62.5,-48.33984375,-62.5
3,1746313044226.4688,-56.640625,-62.98828125,-48.828125,-53.22265625
4,1746313044230.375,-60.05859375,-56.640625,-47.8515625,-71.77734375
5,1746313044234.2812,-60.546875,-53.7109375,-44.43359375,-79.58984375
6,1746313044238.1875,3.41796875,-49.31640625,-42.48046875,-59.5703125
7,1746313044242.0938,28.3203125,-49.8046875,-45.8984375,-50.29296875
8,1746313044246,37.59765625,-54.6875,-50.29296875,-51.7578125
9,1746313044249.9062,56.640625,-56.15234375,-50.29296875,-52.24609375
10,1746313044253.8125,60.05859375,-59.08203125,-52.24609375,-53.7109375
11,1746313044257.7188,30.76171875,-57.12890625,-51.7578125,-41.50390625
0,1746313044261.625,15.13671875,-50.78125,-52.24609375,-51.7578125
1,1746313044265.5312,17.08984375,-53.7109375,-52.24609375,-76.171875
2,1746313044269.4375,18.06640625,-56.640625,-52.734375,-81.54296875
3,1746313044273.3438,18.5546875,-49.31640625,-52.734375,-71.77734375
4,1746313044277.25,11.71875,-46.38671875,-52.24609375,-62.01171875
5,1746313044281.1562,13.671875,-52.24609375,-54.19921875,-64.453125
6,1746313044285.0625,-5.859375,-58.59375,-56.640625,-73.2421875
7,1746313044288.9688,-34.1796875,-61.03515625,-62.01171875,-82.03125
8,1746313044292.875,2.9296875,-63.4765625,-62.98828125,-74.70703125
9,1746313044296.7812,0.9765625,-65.91796875,-58.59375,-78.61328125
10,1746313044300.6875,-57.12890625,-62.5,-53.7109375,-88.37890625
11,1746313044304.5938,-37.109375,-63.4765625,-62.01171875,-84.47265625
0,1746313044308.5,5.859375,-65.4296875,-65.91796875,-87.40234375
1,1746313044312.4062,-38.0859375,-67.3828125,-57.6171875,-81.0546875
2,1746313044316.3125,-55.6640625,-68.359375,-57.6171875,-86.42578125
3,1746313044320.2188,-46.38671875,-64.94140625,-57.12890625,-91.30859375
4,1746313044324.125,-41.9921875,-61.03515625,-50.78125,-78.125
5,1746313044328.0312,-28.80859375,-56.15234375,-48.33984375,-82.03125
6,1746313044331.9375,-10.7421875,-54.6875,-50.29296875,-86.42578125
7,1746313044335.8438,-18.06640625,-55.17578125,-53.7109375,-76.171875
8,1746313044339.75,-17.578125,-55.6640625,-58.10546875,-81.0546875
9,1746313044343.6562,-30.2734375,-57.12890625,-55.6640625,-85.44921875
10,1746313044347.5625,-44.43359375,-56.640625,-47.8515625,-70.3125
11,1746313044351.4688,-41.50390625,-56.15234375,-48.828125,-80.078125
0,1746313044355.375,-28.3203125,-58.59375,-53.22265625,-80.078125
1,1746313044359.2812,1.953125,-56.15234375,-50.29296875,-56.15234375
2,1746313044363.1875,-15.13671875,-52.734375,-49.31640625,-65.91796875
3,1746313044367.0938,-30.2734375,-53.7109375,-50.78125,-72.265625
4,1746313044371,-35.64453125,-51.26953125,-49.31640625,-65.4296875
5,1746313044374.9062,-24.90234375,-50.78125,-48.828125,-66.89453125
6,1746313044378.8125,-9.765625,-52.24609375,-50.78125,-59.5703125
7,1746313044382.7188,-31.25,-50.78125,-49.8046875,-60.05859375
8,1746313044386.625,-47.8515625,-51.7578125,-48.828125,-70.3125
9,1746313044390.5312,-38.57421875,-49.31640625,-47.8515625,-53.22265625
10,1746313044394.4375,-14.16015625,-49.31640625,-44.921875,-41.9921875
11,1746313044398.3438,-36.62109375,-52.734375,-41.9921875,-47.8515625
0,1746313044402.25,-49.8046875,-50.29296875,-43.9453125,-54.6875
1,1746313044406.1562,-16.11328125,-46.875,-44.921875,-57.12890625
2,1746313044410.0625,-27.34375,-42.48046875,-40.0390625,-50.29296875
3,1746313044413.9688,-30.76171875,-40.52734375,-39.0625,-46.875
4,1746313044417.875,-22.94921875,-42.96875,-40.0390625,-56.640625
5,1746313044421.7812,-21.97265625,-41.9921875,-38.57421875,-51.26953125
6,1746313044425.6875,-12.20703125,-44.921875,-39.55078125,-43.9453125
7,1746313044429.5938,-6.8359375,-45.41015625,-42.48046875,-50.78125
8,1746313044433.5,-21.484375,-41.9921875,-40.0390625,-49.8046875
