index,unixTimestamp,TP9,AF7,AF8,TP10
0,1746313021152.25,0,0,0,0
1,1746313021156.1562,0,-0.48828125,-0.48828125,0
2,1746313021160.0625,-1.46484375,-0.9765625,-0.48828125,-2.44140625
3,1746313021163.9688,2.9296875,1.953125,0,4.8828125
4,1746313021167.875,-14.16015625,-13.671875,-4.8828125,-21.97265625
5,1746313021171.7812,-32.71484375,-36.1328125,-20.99609375,-55.6640625
6,1746313021175.6875,-22.94921875,-31.73828125,-34.66796875,-47.36328125
7,1746313021179.5938,-22.94921875,-27.83203125,-19.53125,-51.26953125
8,1746313021183.5,-10.25390625,-42.96875,-8.30078125,-51.7578125
9,1746313021187.4062,4.39453125,-39.0625,-23.92578125,-47.36328125
10,1746313021191.3125,-0.9765625,-14.6484375,-27.34375,-58.59375
11,1746313021195.2188,-22.94921875,-10.25390625,-31.73828125,-41.015625
0,1746313021199.125,-3.90625,-9.765625,-48.33984375,-45.8984375
1,1746313021203.0312,-11.23046875,-9.27734375,-42.96875,-67.3828125
2,1746313021206.9375,-20.99609375,-18.06640625,-22.94921875,-45.41015625
3,1746313021210.8438,18.06640625,-27.34375,-27.34375,-44.921875
4,1746313021214.75,-6.8359375,-31.73828125,-41.015625,-55.6640625
5,1746313021218.6562,-24.4140625,-33.203125,-45.8984375,-45.41015625
6,1746313021222.5625,-2.44140625,-26.3671875,-45.8984375,-20.01953125
7,1746313021226.4688,-22.94921875,-31.73828125,-38.0859375,-6.8359375
8,1746313021230.375,-37.109375,-36.1328125,-33.69140625,-13.18359375
9,1746313021234.2812,-27.83203125,-32.2265625,-24.90234375,-57.6171875
10,1746313021238.1875,-33.203125,-40.0390625,-32.2265625,-66.40625
11,1746313021242.0938,-20.01953125,-47.8515625,-47.8515625,-55.6640625
0,1746313021246,-5.859375,-47.36328125,-43.45703125,-85.44921875
1,1746313021249.9062,8.7890625,-50.78125,-36.62109375,-45.8984375
2,1746313021253.8125,-26.85546875,-40.0390625,-24.90234375,-12.20703125
3,1746313021257.7188,-50.78125,-29.296875,-26.85546875,-56.640625
4,1746313021261.625,-18.5546875,-38.57421875,-49.8046875,-72.75390625
5,1746313021265.5312,-6.34765625,-43.45703125,-48.33984375,-74.21875
6,1746313021269.4375,-0.48828125,-36.62109375,-41.50390625,-55.17578125
7,1746313021273.3438,-13.18359375,-34.66796875,-56.640625,-45.8984375
8,1746313021277.25,-24.90234375,-32.2265625,-33.203125,-51.26953125
9,1746313021281.1562,-34.1796875,-43.45703125,2.44140625,-51.26953125
10,1746313021285.0625,-14.6484375,-48.33984375,-16.6015625,-31.25
11,1746313021288.9688,-11.71875,-31.25,-41.9921875,-15.625
0,1746313021292.875,8.7890625,-26.3671875,-42.96875,-44.921875
1,1746313021296.7812,20.5078125,-26.3671875,-41.50390625,-70.3125
2,1746313021300.6875,-22.94921875,-25.87890625,-39.55078125,-71.77734375
3,1746313021304.5938,-22.4609375,-30.76171875,-46.875,-50.78125
4,1746313021308.5,-26.3671875,-33.69140625,-46.38671875,-35.15625
5,1746313021312.4062,-47.8515625,-34.66796875,-31.73828125,-41.50390625
6,1746313021316.3125,-56.640625,-30.2734375,-33.69140625,-58.10546875
7,1746313021320.2188,-32.71484375,-22.94921875,-42.48046875,-59.08203125
8,1746313021324.125,-31.73828125,-25.390625,-41.9921875,-47.36328125
9,1746313021328.0312,-23.92578125,-39.0625,-37.59765625,-40.0390625
10,1746313021331.9375,0.9765625,-37.109375,-36.62109375,-55.6640625
11,1746313021335.8438,-31.25,-26.85546875,-25.390625,-59.08203125
0,1746313021339.75,9.765625,-27.83203125,-34.1796875,-34.66796875
1,1746313021343.6562,39.55078125,-26.85546875,-60.546875,-47.36328125
2,1746313021347.5625,-13.18359375,-28.3203125,-42.96875,-50.78125
3,1746313021351.4688,-33.69140625,-36.1328125,-19.53125,-32.2265625
4,1746313021355.375,-4.8828125,-35.64453125,-17.08984375,-46.38671875
5,1746313021359.2812,4.39453125,-37.59765625,-15.13671875,-63.96484375
6,1746313021363.1875,-24.4140625,-50.29296875,-26.85546875,-61.03515625
7,1746313021367.0938,-51.7578125,-47.8515625,-39.55078125,-44.921875
8,1746313021371,-61.03515625,-40.0390625,-32.71484375,-23.4375
9,1746313021374.9062,-31.73828125,-35.64453125,-33.203125,-47.36328125
10,1746313021378.8125,-18.5546875,-30.2734375,-35.15625,-43.45703125
11,1746313021382.7188,-14.6484375,-36.1328125,-27.83203125,-35.15625
0,1746313021386.625,7.32421875,-37.109375,-32.2265625,-49.31640625
1,1746313021390.5312,-34.66796875,-36.1328125,-28.80859375,-41.50390625
2,1746313021394.4375,-8.7890625,-34.66796875,-35.15625,-47.8515625
3,1746313021398.3438,22.4609375,-31.73828125,-38.57421875,-57.6171875
4,1746313021402.25,-44.921875,-33.203125,-37.59765625,-56.15234375
5,1746313021406.1562,-33.203125,-28.80859375,-35.15625,-36.62109375
6,1746313021410.0625,-1.46484375,-33.69140625,-36.1328125,-37.109375
7,1746313021413.9688,4.8828125,-50.78125,-38.0859375,-41.50390625
8,1746313021417.875,30.76171875,-43.45703125,-29.296875,-26.3671875
9,1746313021421.7812,44.43359375,-21.97265625,-39.0625,-41.015625
10,1746313021425.6875,-77.1484375,-27.34375,-32.71484375,-63.4765625
11,1746313021429.5938,-89.84375,-35.64453125,-20.01953125,-79.1015625
0,1746313021433.5,-33.69140625,-26.85546875,-25.87890625,-80.078125
1,1746313021437.4062,-57.6171875,-26.85546875,-33.69140625,-88.37890625
2,1746313021441.3125,-20.01953125,-25.87890625,-42.96875,-99.609375
3,1746313021445.2188,-20.01953125,-15.13671875,-48.33984375,-67.3828125
4,1746313021449.125,-90.8203125,-22.94921875,-54.6875,-65.4296875
5,1746313021453.0312,-58.59375,-27.34375,-50.78125,-96.6796875
6,1746313021456.9375,-6.8359375,-30.2734375,-32.71484375,-93.26171875
7,1746313021460.8438,-28.3203125,-41.50390625,-31.73828125,-91.30859375
8,1746313021464.75,-55.6640625,-43.9453125,-40.52734375,-81.0546875
9,1746313021468.6562,-38.0859375,-37.59765625,-42.96875,-68.84765625
10,1746313021472.5625,-39.55078125,-27.83203125,-45.8984375,-93.75
11,1746313021476.4688,-64.94140625,-25.390625,-40.52734375,-77.63671875
0,1746313021480.375,-43.45703125,-20.99609375,-33.69140625,-60.05859375
1,1746313021484.2812,27.34375,-15.13671875,-40.0390625,-78.61328125
2,1746313021488.1875,21.484375,-9.765625,-40.52734375,-70.80078125
3,1746313021492.0938,-5.37109375,-15.13671875,-41.50390625,-50.29296875
4,1746313021496,12.20703125,-22.94921875,-49.8046875,-58.10546875
5,1746313021499.9062,-10.7421875,-28.3203125,-53.22265625,-52.734375
6,1746313021503.8125,-32.2265625,-42.96875,-44.921875,-21.484375
7,1746313021507.7188,-28.80859375,-51.7578125,-34.66796875,-50.29296875
8,1746313021511.625,-9.27734375,-44.921875,-41.015625,-62.01171875
9,1746313021515.5312,20.01953125,-34.66796875,-38.57421875,-54.19921875
10,1746313021519.4375,21.484375,-27.83203125,-38.57421875,-45.8984375
11,1746313021523.3438,-56.15234375,-26.3671875,-44.921875,-34.1796875
0,1746313021527.25,-60.546875,-34.1796875,-37.109375,-28.3203125
1,1746313021531.1562,1.46484375,-40.0390625,-27.83203125,-38.57421875
2,1746313021535.0625,2.9296875,-38.0859375,-23.92578125,-63.96484375
3,1746313021538.9688,-30.76171875,-30.76171875,-25.87890625,-54.6875
4,1746313021542.875,-22.4609375,-22.4609375,-37.59765625,-73.73046875
5,1746313021546.7812,16.11328125,-16.11328125,-47.8515625,-59.08203125
6,1746313021550.6875,20.01953125,-28.3203125,-37.59765625,-37.59765625
7,1746313021554.5938,8.30078125,-43.45703125,-26.3671875,-39.55078125
8,1746313021558.5,48.33984375,-30.2734375,-26.85546875,-9.765625
9,1746313021562.4062,-3.90625,-31.25,-29.78515625,-32.71484375
10,1746313021566.3125,-80.56640625,-41.50390625,-35.15625,-67.3828125
11,1746313021570.2188,-70.80078125,-37.59765625,-29.296875,-69.82421875
0,1746313021574.125,-48.828125,-22.94921875,-16.6015625,-73.73046875
1,1746313021578.0312,-48.33984375,-7.8125,-23.92578125,-74.70703125
2,1746313021581.9375,-70.3125,-16.11328125,-37.59765625,-83.0078125
3,1746313021585.8438,-42.96875,-27.83203125,-52.734375,-77.1484375
4,1746313021589.75,-48.33984375,-53.7109375,-47.8515625,-63.4765625
5,1746313021593.6562,-94.7265625,-53.22265625,-39.0625,-94.7265625
6,1746313021597.5625,-63.4765625,-21.97265625,-37.59765625,-125.48828125
7,1746313021601.4688,8.7890625,-9.765625,-30.76171875,-99.609375
8,1746313021605.375,-58.59375,-9.27734375,-24.4140625,-79.1015625
9,1746313021609.2812,-105.95703125,-20.01953125,-20.01953125,-74.21875
10,1746313021613.1875,-56.15234375,-48.33984375,-27.83203125,-88.37890625
11,1746313021617.0938,-41.015625,-57.6171875,-43.9453125,-90.8203125
0,1746313021621,-61.03515625,-23.92578125,-45.8984375,-82.51953125
1,1746313021624.9062,-62.01171875,-13.671875,-36.1328125,-106.93359375
2,1746313021628.8125,-71.77734375,-23.92578125,-33.69140625,-106.4453125
3,1746313021632.7188,-53.7109375,-26.85546875,-38.57421875,-97.65625
4,1746313021636.625,-11.23046875,-33.203125,-38.57421875,-82.03125
5,1746313021640.5312,-19.53125,-37.59765625,-34.1796875,-46.38671875
6,1746313021644.4375,-39.55078125,-35.64453125,-50.78125,-36.1328125
7,1746313021648.3438,8.7890625,-40.52734375,-58.59375,-67.3828125
8,1746313021652.25,8.7890625,-45.8984375,-23.4375,-26.85546875
9,1746313021656.1562,-56.15234375,-37.109375,-14.16015625,1.953125
10,1746313021660.0625,-25.390625,-31.73828125,-26.3671875,-54.19921875
11,1746313021663.9688,-8.30078125,-32.71484375,-28.3203125,-77.1484375
0,1746313021667.875,-15.13671875,-36.1328125,-30.2734375,-65.4296875
1,1746313021671.7812,-14.6484375,-37.59765625,-35.64453125,-49.31640625
2,1746313021675.6875,-28.80859375,-35.64453125,-31.25,-44.921875
3,1746313021679.5938,-52.734375,-39.0625,-26.85546875,-33.69140625
4,1746313021683.5,-29.78515625,-46.875,-37.59765625,-43.9453125
5,1746313021687.4062,-8.7890625,-38.57421875,-46.875,-70.3125
6,1746313021691.3125,-10.7421875,-32.2265625,-48.828125,-46.875
7,1746313021695.2188,-61.03515625,-33.69140625,-42.96875,-9.27734375
8,1746313021699.125,-15.13671875,-21.97265625,-44.43359375,-27.83203125
9,1746313021703.0312,13.18359375,-24.4140625,-52.24609375,-8.7890625
10,1746313021706.9375,-28.3203125,-40.0390625,-35.15625,-10.7421875
11,1746313021710.8438,-25.87890625,-39.0625,-34.1796875,-38.0859375
0,1746313021714.75,-22.4609375,-41.015625,-50.78125,2.9296875
1,1746313021718.6562,11.71875,-29.78515625,-29.296875,-11.23046875
2,1746313021722.5625,-20.5078125,-10.7421875,-19.04296875,-64.453125
3,1746313021726.4688,19.04296875,-7.8125,-31.25,-54.19921875
4,1746313021730.375,36.62109375,-35.64453125,-20.99609375,-14.16015625
5,1746313021734.2812,-71.2890625,-55.17578125,-19.04296875,-15.625
6,1746313021738.1875,-25.390625,-43.45703125,-26.85546875,-54.19921875
7,1746313021742.0938,11.71875,-28.80859375,-41.50390625,-45.41015625
8,1746313021746,-48.33984375,-20.01953125,-64.453125,-45.8984375
9,1746313021749.9062,-38.0859375,-19.04296875,-44.43359375,-62.98828125
10,1746313021753.8125,-14.16015625,-27.34375,-22.4609375,-68.359375
11,1746313021757.7188,0.9765625,-33.69140625,-22.94921875,-62.5
0,1746313021761.625,-12.6953125,-31.25,-28.3203125,-42.96875
1,1746313021765.5312,-51.7578125,-40.52734375,-31.73828125,-25.87890625
2,1746313021769.4375,-13.18359375,-48.828125,-35.64453125,-5.859375
3,1746313021773.3438,22.94921875,-40.0390625,-38.0859375,-12.6953125
4,1746313021777.25,-23.92578125,-33.69140625,-41.50390625,-56.640625
5,1746313021781.1562,-64.453125,-30.2734375,-42.48046875,-51.7578125
6,1746313021785.0625,-43.45703125,-30.2734375,-44.43359375,-39.0625
7,1746313021788.9688,1.46484375,-34.1796875,-47.36328125,-63.4765625
8,1746313021792.875,-33.203125,-29.78515625,-35.15625,-57.6171875
9,1746313021796.7812,-86.9140625,-27.34375,-34.1796875,-52.734375
10,1746313021800.6875,-57.6171875,-25.87890625,-55.17578125,-54.6875
11,1746313021804.5938,-29.78515625,-25.390625,-59.08203125,-63.96484375
0,1746313021808.5,-40.0390625,-31.73828125,-36.1328125,-68.359375
1,1746313021812.4062,-17.578125,-34.66796875,-24.4140625,-51.7578125
2,1746313021816.3125,11.23046875,-36.1328125,-28.80859375,-62.01171875
3,1746313021820.2188,15.13671875,-38.0859375,-36.62109375,-34.66796875
4,1746313021824.125,5.37109375,-31.25,-40.0390625,5.859375
5,1746313021828.0312,-31.73828125,-22.94921875,-50.78125,-43.9453125
6,1746313021831.9375,-64.94140625,-42.96875,-37.59765625,-84.9609375
7,1746313021835.8438,-24.90234375,-50.78125,-11.71875,-76.66015625
8,1746313021839.75,20.5078125,-30.76171875,-25.87890625,-43.45703125
9,1746313021843.6562,-35.15625,-22.94921875,-38.0859375,-21.97265625
10,1746313021847.5625,-42.48046875,-22.94921875,-29.78515625,-49.8046875
11,1746313021851.4688,-1.953125,-23.4375,-27.34375,-47.8515625
0,1746313021855.375,-17.578125,-23.4375,-40.52734375,-18.06640625
1,1746313021859.2812,-59.5703125,-23.4375,-50.29296875,-24.90234375
2,1746313021863.1875,-49.8046875,-32.2265625,-50.78125,-58.59375
3,1746313021867.0938,-53.22265625,-37.109375,-39.0625,-65.91796875
4,1746313021871,-29.78515625,-16.6015625,-26.85546875,-47.36328125
5,1746313021874.9062,-25.390625,-6.34765625,-27.83203125,-61.03515625
6,1746313021878.8125,11.23046875,-23.4375,-34.1796875,-62.5
7,1746313021882.7188,23.92578125,-33.203125,-61.03515625,-13.18359375
8,1746313021886.625,-54.6875,-32.2265625,-57.6171875,-36.62109375
9,1746313021890.5312,-61.5234375,-31.25,-41.015625,-72.265625
10,1746313021894.4375,-20.01953125,-23.4375,-44.921875,-51.26953125
11,1746313021898.3438,-1.46484375,-25.390625,-29.78515625,-35.64453125
0,1746313021902.25,-29.296875,-27.34375,-23.4375,-45.41015625
1,1746313021906.1562,4.39453125,-26.85546875,-28.3203125,-55.17578125
2,1746313021910.0625,37.109375,-29.296875,-41.50390625,-20.01953125
3,1746313021913.9688,2.44140625,-35.64453125,-64.453125,-5.859375
4,1746313021917.875,-19.04296875,-44.43359375,-68.359375,-40.0390625
5,1746313021921.7812,-24.90234375,-48.33984375,-39.55078125,-54.6875
6,1746313021925.6875,-13.671875,-26.3671875,-16.6015625,-41.9921875
7,1746313021929.5938,-54.19921875,-4.8828125,-11.71875,-40.0390625
8,1746313021933.5,-97.65625,-0.48828125,-16.6015625,-51.7578125
9,1746313021937.4062,-24.90234375,-8.30078125,-25.87890625,-46.875
10,1746313021941.3125,5.859375,-19.53125,-34.66796875,-37.59765625
11,1746313021945.2188,-34.1796875,-25.390625,-38.0859375,-53.7109375
0,1746313021949.125,-44.921875,-30.76171875,-35.15625,-54.6875
1,1746313021953.0312,-27.34375,-27.83203125,-45.41015625,-38.57421875
2,1746313021956.9375,-28.3203125,-29.296875,-56.15234375,-29.78515625
3,1746313021960.8438,-11.71875,-29.296875,-44.43359375,-5.859375
4,1746313021964.75,-15.625,-28.3203125,-26.85546875,-26.85546875
5,1746313021968.6562,-30.76171875,-31.73828125,-20.99609375,-41.50390625
6,1746313021972.5625,22.94921875,-40.52734375,-24.4140625,-28.80859375
7,1746313021976.4688,1.953125,-45.41015625,-40.52734375,-45.41015625
8,1746313021980.375,-62.01171875,-27.34375,-37.109375,-49.8046875
9,1746313021984.2812,-66.40625,-17.578125,-31.73828125,-68.359375
10,1746313021988.1875,-37.109375,-22.4609375,-44.43359375,-59.5703125
11,1746313021992.0938,-23.92578125,-23.4375,-47.36328125,-50.29296875
0,1746313021996,-36.1328125,-30.76171875,-52.24609375,-51.26953125
1,1746313021999.9062,-37.109375,-25.390625,-54.6875,-32.71484375
2,1746313022003.8125,-35.64453125,-24.4140625,-22.4609375,-41.9921875
3,1746313022007.7188,-68.359375,-41.9921875,-3.41796875,-49.8046875
4,1746313022011.625,-71.77734375,-48.828125,-26.3671875,-59.08203125
5,1746313022015.5312,-48.33984375,-35.64453125,-34.1796875,-34.66796875
6,1746313022019.4375,-58.59375,-27.83203125,-34.1796875,-45.41015625
7,1746313022023.3438,-47.8515625,-39.0625,-33.203125,-80.56640625
8,1746313022027.25,-25.390625,-38.0859375,-23.92578125,-51.26953125
9,1746313022031.1562,-21.484375,-24.4140625,-29.78515625,-53.7109375
10,1746313022035.0625,-42.96875,-34.1796875,-37.109375,-69.3359375
11,1746313022038.9688,-48.828125,-20.5078125,-44.43359375,-59.08203125
0,1746313022042.875,-24.4140625,-15.13671875,-46.38671875,-36.62109375
1,1746313022046.7812,-24.4140625,-37.109375,-37.109375,-26.3671875
2,1746313022050.6875,-80.078125,-54.19921875,-26.85546875,-43.45703125
3,1746313022054.5938,-66.40625,-47.36328125,-17.08984375,-37.59765625
4,1746313022058.5,-52.734375,-28.80859375,-15.625,-30.2734375
5,1746313022062.4062,-75.1953125,-22.4609375,-20.99609375,-41.50390625
6,1746313022066.3125,-75.68359375,-26.3671875,-24.4140625,-33.69140625
7,1746313022070.2188,-64.94140625,-27.83203125,-19.53125,-12.20703125
8,1746313022074.125,-36.62109375,-19.04296875,-23.4375,-0.9765625
9,1746313022078.0312,-57.6171875,-21.97265625,-27.34375,-56.640625
10,1746313022081.9375,-32.71484375,-30.2734375,-39.55078125,-82.51953125
11,1746313022085.8438,-30.2734375,-33.203125,-27.34375,-40.0390625
0,1746313022089.75,-96.19140625,-24.90234375,-17.08984375,-46.875
1,1746313022093.6562,-59.5703125,-27.34375,-43.45703125,-31.73828125
2,1746313022097.5625,-21.97265625,-43.9453125,-58.10546875,-23.4375
3,1746313022101.4688,-17.08984375,-48.828125,-35.64453125,-41.015625
4,1746313022105.375,-38.0859375,-29.296875,-16.11328125,-60.05859375
5,1746313022109.2812,-47.8515625,-21.484375,-26.3671875,-81.0546875
6,1746313022113.1875,-67.3828125,-20.01953125,-18.5546875,-71.2890625
7,1746313022117.0938,-51.7578125,-16.11328125,10.7421875,-62.01171875
8,1746313022121,-63.4765625,-32.71484375,2.44140625,-43.45703125
9,1746313022124.9062,-55.6640625,-39.0625,-20.01953125,-32.2265625
10,1746313022128.8125,-38.0859375,-18.06640625,-30.76171875,-44.921875
11,1746313022132.7188,-57.12890625,-5.859375,-46.38671875,-38.57421875
0,1746313022136.625,-36.1328125,-10.25390625,-39.0625,-27.83203125
1,1746313022140.5312,4.39453125,-21.97265625,-20.01953125,-45.8984375
2,1746313022144.4375,-24.4140625,-28.3203125,-20.5078125,-58.10546875
3,1746313022148.3438,-81.0546875,-25.87890625,-40.0390625,-51.7578125
4,1746313022152.25,-107.421875,-34.66796875,-47.36328125,-62.98828125
5,1746313022156.1562,-82.03125,-62.01171875,-20.01953125,-61.5234375
6,1746313022160.0625,-66.89453125,-81.0546875,-6.8359375,-26.85546875
7,1746313022163.9688,-43.45703125,-52.24609375,-16.11328125,-48.828125
8,1746313022167.875,-34.66796875,-13.18359375,-32.71484375,-53.7109375
9,1746313022171.7812,-47.36328125,-27.83203125,-63.4765625,4.39453125
10,1746313022175.6875,-41.50390625,-59.08203125,-62.98828125,15.13671875
11,1746313022179.5938,-46.38671875,-43.45703125,-20.01953125,-39.0625
0,1746313022183.5,-73.73046875,-25.390625,-0.48828125,-60.546875
1,1746313022187.4062,-92.7734375,-21.97265625,4.8828125,-79.1015625
2,1746313022191.3125,-56.15234375,-16.11328125,7.8125,-78.125
3,1746313022195.2188,-68.359375,-24.90234375,-14.6484375,-63.4765625
4,1746313022199.125,-54.6875,-25.87890625,-30.2734375,-33.203125
5,1746313022203.0312,-7.8125,-22.94921875,-26.85546875,-24.4140625
6,1746313022206.9375,-71.2890625,-36.1328125,-19.53125,-61.03515625
7,1746313022210.8438,-55.6640625,-46.875,-21.484375,-56.640625
8,1746313022214.75,-27.34375,-40.52734375,-42.48046875,-74.21875
9,1746313022218.6562,-83.984375,-34.1796875,-30.76171875,-63.96484375
10,1746313022222.5625,-10.25390625,-24.4140625,-25.390625,-30.76171875
11,1746313022226.4688,-17.578125,-31.73828125,-45.8984375,-35.64453125
0,1746313022230.375,-83.984375,-42.96875,-36.62109375,-39.55078125
1,1746313022234.2812,-42.48046875,-30.76171875,-16.6015625,-59.5703125
2,1746313022238.1875,-78.125,-26.3671875,-15.13671875,-60.05859375
3,1746313022242.0938,-109.375,-25.390625,-19.04296875,-49.8046875
4,1746313022246,-47.36328125,-26.85546875,-14.16015625,-29.78515625
5,1746313022249.9062,-59.08203125,-27.34375,-7.32421875,-25.390625
6,1746313022253.8125,-74.70703125,-23.4375,-17.578125,-50.29296875
7,1746313022257.7188,-64.94140625,-30.76171875,-33.69140625,-31.25
8,1746313022261.625,-49.31640625,-46.875,-40.0390625,-34.1796875
9,1746313022265.5312,-38.57421875,-41.9921875,-33.203125,-69.82421875
10,1746313022269.4375,-54.19921875,-28.3203125,-28.80859375,-64.94140625
11,1746313022273.3438,-59.5703125,-24.90234375,-37.59765625,-71.77734375
0,1746313022277.25,-29.78515625,-41.015625,-29.296875,-50.78125
1,1746313022281.1562,-20.01953125,-55.17578125,-24.4140625,-50.78125
2,1746313022285.0625,-49.31640625,-26.3671875,-33.203125,-63.96484375
3,1746313022288.9688,-30.76171875,-20.01953125,-37.109375,-42.48046875
4,1746313022292.875,5.859375,-41.50390625,-43.9453125,-63.4765625
5,1746313022296.7812,-14.6484375,-35.64453125,-53.22265625,-86.42578125
6,1746313022300.6875,-92.7734375,-26.85546875,-29.296875,-70.80078125
7,1746313022304.5938,-110.83984375,-32.2265625,-1.953125,-57.12890625
8,1746313022308.5,-65.4296875,-35.15625,-22.94921875,-60.05859375
9,1746313022312.4062,-46.38671875,-38.57421875,-48.33984375,-50.29296875
10,1746313022316.3125,-18.06640625,-39.0625,-26.3671875,-56.640625
11,1746313022320.2188,-32.2265625,-36.1328125,-6.8359375,-51.26953125
0,1746313022324.125,-102.05078125,-44.921875,-12.6953125,-35.64453125
1,1746313022328.0312,-68.359375,-58.10546875,-8.7890625,-52.734375
2,1746313022331.9375,-8.30078125,-45.8984375,-30.2734375,-42.96875
3,1746313022335.8438,-66.40625,-34.66796875,-41.015625,-16.6015625
4,1746313022339.75,-95.21484375,-35.64453125,-30.2734375,-30.76171875
5,1746313022343.6562,-43.45703125,-15.13671875,-26.85546875,-67.3828125
6,1746313022347.5625,-10.7421875,-21.484375,-28.80859375,-84.9609375
7,1746313022351.4688,-68.84765625,-40.0390625,-22.94921875,-63.96484375
8,1746313022355.375,-116.69921875,-27.83203125,-25.390625,-82.51953125
9,1746313022359.2812,-4.39453125,-22.4609375,-35.64453125,-95.703125
10,1746313022363.1875,-23.4375,-27.34375,-39.0625,-60.05859375
11,1746313022367.0938,-124.51171875,-33.69140625,-49.31640625,-46.875
0,1746313022371,-63.4765625,-43.9453125,-32.2265625,-59.5703125
1,1746313022374.9062,-66.40625,-40.52734375,-2.9296875,-68.359375
2,1746313022378.8125,-89.35546875,-30.2734375,2.9296875,-56.640625
3,1746313022382.7188,-53.22265625,-31.73828125,-20.01953125,-62.98828125
4,1746313022386.625,-62.98828125,-28.80859375,-34.66796875,-62.5
5,1746313022390.5312,-70.80078125,-37.109375,-35.64453125,-53.7109375
6,1746313022394.4375,-54.6875,-58.10546875,-47.36328125,-66.89453125
7,1746313022398.3438,-70.80078125,-65.4296875,-32.71484375,-20.01953125
8,1746313022402.25,-78.61328125,-69.3359375,-18.06640625,14.6484375
9,1746313022406.1562,-29.78515625,-50.29296875,-17.578125,-44.921875
10,1746313022410.0625,-62.5,-34.1796875,-19.04296875,-95.703125
11,1746313022413.9688,-96.19140625,-30.2734375,-38.0859375,-95.703125
0,1746313022417.875,-50.78125,-15.625,-32.71484375,-95.21484375
1,1746313022421.7812,-55.6640625,-18.06640625,-31.25,-98.6328125
2,1746313022425.6875,-30.76171875,-22.4609375,-34.1796875,-77.63671875
3,1746313022429.5938,-51.7578125,-28.3203125,-35.64453125,-74.70703125
4,1746313022433.5,-120.1171875,-38.57421875,-39.55078125,-59.08203125
5,1746313022437.4062,-108.88671875,-36.1328125,-21.484375,-47.8515625
6,1746313022441.3125,-65.91796875,-47.36328125,-15.13671875,-40.0390625
7,1746313022445.2188,-57.12890625,-59.08203125,-24.90234375,-62.5
8,1746313022449.125,-73.73046875,-48.828125,-43.45703125,-57.12890625
9,1746313022453.0312,-40.0390625,-50.78125,-33.69140625,-50.29296875
10,1746313022456.9375,-25.87890625,-49.8046875,-8.7890625,-82.51953125
11,1746313022460.8438,-104.98046875,-43.45703125,-20.01953125,-63.4765625
0,1746313022464.75,-127.9296875,-31.73828125,-28.80859375,-65.4296875
1,1746313022468.6562,-80.56640625,-29.296875,-28.80859375,-57.12890625
2,1746313022472.5625,-80.078125,-29.296875,-34.1796875,-56.15234375
3,1746313022476.4688,-93.75,-32.71484375,-27.34375,-56.15234375
4,1746313022480.375,-92.28515625,-36.1328125,-28.3203125,-38.57421875
5,1746313022484.2812,-59.08203125,-23.4375,-58.10546875,-38.57421875
6,1746313022488.1875,-37.59765625,-27.83203125,-69.82421875,-52.24609375
7,1746313022492.0938,-92.28515625,-48.828125,-17.08984375,-83.49609375
8,1746313022496,-89.84375,-67.3828125,11.23046875,-79.58984375
9,1746313022499.9062,-41.015625,-51.26953125,-0.48828125,-70.3125
10,1746313022503.8125,-38.57421875,-39.55078125,-29.296875,-116.2109375
11,1746313022507.7188,-55.17578125,-59.08203125,-38.0859375,-100.09765625
0,1746313022511.625,-107.421875,-38.0859375,-49.8046875,-47.8515625
1,1746313022515.5312,-78.61328125,-14.6484375,-41.9921875,-58.59375
2,1746313022519.4375,-66.89453125,-15.625,-10.7421875,-66.89453125
3,1746313022523.3438,-93.26171875,-32.71484375,-35.15625,-64.453125
4,1746313022527.25,-89.84375,-56.15234375,-36.62109375,-113.76953125
5,1746313022531.1562,-9.27734375,-52.734375,-18.5546875,-94.23828125
6,1746313022535.0625,-11.71875,-38.57421875,-26.85546875,-41.015625
7,1746313022538.9688,-107.91015625,-36.62109375,-23.92578125,-55.6640625
8,1746313022542.875,-77.1484375,-36.62109375,-26.85546875,-58.10546875
9,1746313022546.7812,-63.4765625,-37.59765625,-39.55078125,-63.96484375
10,1746313022550.6875,-115.234375,-35.64453125,-41.9921875,-62.01171875
11,1746313022554.5938,-101.07421875,-28.80859375,-27.34375,-42.96875
0,1746313022558.5,-78.61328125,-34.1796875,-25.390625,-66.40625
1,1746313022562.4062,-42.96875,-48.828125,-34.1796875,-35.64453125
2,1746313022566.3125,-34.66796875,-50.78125,-18.5546875,-29.78515625
3,1746313022570.2188,-66.89453125,-41.9921875,-1.953125,-26.85546875
4,1746313022574.125,-54.6875,-44.921875,-33.203125,-11.71875
5,1746313022578.0312,-75.68359375,-48.33984375,-44.921875,-83.984375
6,1746313022581.9375,-65.91796875,-41.015625,-20.5078125,-99.609375
7,1746313022585.8438,-44.43359375,-42.48046875,-22.94921875,-81.54296875
8,1746313022589.75,-46.38671875,-43.9453125,-30.2734375,-59.08203125
9,1746313022593.6562,-66.40625,-38.57421875,-42.96875,-41.9921875
10,1746313022597.5625,-49.8046875,-27.83203125,-44.43359375,-66.89453125
11,1746313022601.4688,13.671875,-20.5078125,-27.34375,-98.6328125
0,1746313022605.375,-10.7421875,-21.97265625,-21.97265625,-87.890625
1,1746313022609.2812,-115.72265625,-22.94921875,-25.87890625,-64.453125
2,1746313022613.1875,-129.39453125,-30.2734375,-34.1796875,-60.05859375
3,1746313022617.0938,-112.79296875,-41.9921875,-32.2265625,-58.59375
4,1746313022621,-87.890625,-43.45703125,-27.83203125,-45.41015625
5,1746313022624.9062,-86.9140625,-37.59765625,-21.484375,-21.484375
6,1746313022628.8125,-110.3515625,-40.0390625,-12.6953125,-25.390625
7,1746313022632.7188,-71.2890625,-41.50390625,-20.01953125,-56.15234375
8,1746313022636.625,-41.9921875,-38.57421875,-28.80859375,-63.4765625
9,1746313022640.5312,-89.35546875,-39.0625,-29.78515625,-64.453125
10,1746313022644.4375,-88.8671875,-41.9921875,-32.71484375,-72.75390625
11,1746313022648.3438,-56.640625,-51.7578125,-29.78515625,-64.94140625
0,1746313022652.25,-81.54296875,-50.78125,-34.1796875,-72.75390625
1,1746313022656.1562,-95.21484375,-43.9453125,-45.41015625,-69.3359375
2,1746313022660.0625,-88.37890625,-41.015625,-39.0625,-71.77734375
3,1746313022663.9688,-68.84765625,-41.9921875,-36.62109375,-88.37890625
4,1746313022667.875,-62.5,-52.24609375,-30.76171875,-74.21875
5,1746313022671.7812,-51.26953125,-47.36328125,-28.3203125,-74.21875
6,1746313022675.6875,-129.8828125,-35.15625,-40.0390625,-59.08203125
7,1746313022679.5938,-110.3515625,-34.66796875,-27.83203125,-49.31640625
8,1746313022683.5,-95.21484375,-35.64453125,-13.18359375,-106.93359375
9,1746313022687.4062,-123.53515625,-41.50390625,-12.20703125,-118.1640625
10,1746313022691.3125,-114.2578125,-41.015625,-14.16015625,-91.796875
11,1746313022695.2188,-148.92578125,-30.76171875,-20.5078125,-125.9765625
0,1746313022699.125,-106.4453125,-33.69140625,-19.53125,-151.3671875
1,1746313022703.0312,-130.859375,-41.50390625,-9.27734375,-138.18359375
2,1746313022706.9375,-182.12890625,-48.33984375,-2.9296875,-142.08984375
3,1746313022710.8438,-168.9453125,-58.10546875,-5.859375,-157.71484375
4,1746313022714.75,-224.12109375,-56.640625,-8.30078125,-148.4375
5,1746313022718.6562,-215.8203125,-54.19921875,0.48828125,-164.0625
6,1746313022722.5625,-184.5703125,-66.89453125,7.32421875,-180.17578125
7,1746313022726.4688,-225.5859375,-70.3125,9.27734375,-151.85546875
8,1746313022730.375,-219.7265625,-62.01171875,11.23046875,-154.296875
9,1746313022734.2812,-205.078125,-67.3828125,1.953125,-156.25
10,1746313022738.1875,-169.921875,-87.890625,-11.23046875,-130.37109375
11,1746313022742.0938,-123.046875,-89.84375,7.32421875,-150.390625
0,1746313022746,-173.33984375,-73.2421875,22.94921875,-171.875
1,1746313022749.9062,-174.8046875,-66.89453125,7.8125,-136.23046875
2,1746313022753.8125,-119.140625,-67.3828125,-4.8828125,-99.12109375
3,1746313022757.7188,-82.03125,-78.61328125,-11.23046875,-64.94140625
4,1746313022761.625,-73.73046875,-83.984375,-11.23046875,-44.921875
5,1746313022765.5312,-63.4765625,-63.4765625,-2.44140625,-53.7109375
6,1746313022769.4375,-54.6875,-46.38671875,-6.8359375,-67.87109375
7,1746313022773.3438,-70.3125,-42.96875,-10.7421875,-44.921875
8,1746313022777.25,-58.59375,-37.109375,-14.16015625,-9.27734375
9,1746313022781.1562,0.9765625,-39.55078125,-22.4609375,16.6015625
10,1746313022785.0625,-17.578125,-49.31640625,-35.15625,-5.37109375
11,1746313022788.9688,-63.96484375,-49.31640625,-36.1328125,-40.0390625
0,1746313022792.875,-12.6953125,-39.0625,-31.73828125,-7.32421875
1,1746313022796.7812,-17.08984375,-37.109375,-37.59765625,15.625
2,1746313022800.6875,-34.1796875,-44.921875,-43.9453125,-33.203125
3,1746313022804.5938,-1.953125,-31.25,-42.96875,-20.99609375
4,1746313022808.5,0.48828125,-17.08984375,-45.8984375,7.32421875
5,1746313022812.4062,-12.6953125,-20.5078125,-48.33984375,-15.625
6,1746313022816.3125,9.765625,-25.87890625,-38.0859375,0
7,1746313022820.2188,-14.16015625,-32.71484375,-40.0390625,3.90625
8,1746313022824.125,-24.90234375,-41.015625,-49.31640625,-7.32421875
9,1746313022828.0312,-10.7421875,-43.45703125,-40.52734375,-0.48828125
10,1746313022831.9375,-1.953125,-30.76171875,-40.0390625,-20.01953125
11,1746313022835.8438,-23.92578125,-13.18359375,-49.31640625,-14.6484375
0,1746313022839.75,-20.01953125,-14.6484375,-53.7109375,-0.48828125
1,1746313022843.6562,9.27734375,-17.08984375,-60.546875,-21.484375
2,1746313022847.5625,16.6015625,-11.23046875,-51.7578125,-11.23046875
3,1746313022851.4688,32.2265625,-25.390625,-42.48046875,13.18359375
4,1746313022855.375,-29.296875,-41.9921875,-53.7109375,3.41796875
5,1746313022859.2812,-56.15234375,-28.3203125,-62.5,-27.34375
6,1746313022863.1875,-57.12890625,-16.6015625,-45.41015625,-32.2265625
7,1746313022867.0938,-33.203125,-24.4140625,-34.1796875,-8.30078125
8,1746313022871,-15.625,-27.83203125,-35.15625,-24.90234375
9,1746313022874.9062,-78.61328125,-10.7421875,-33.203125,-25.87890625
10,1746313022878.8125,-64.94140625,-7.32421875,-31.25,-10.7421875
11,1746313022882.7188,-4.8828125,-19.04296875,-40.0390625,-14.6484375
0,1746313022886.625,-5.37109375,-16.11328125,-47.8515625,-23.4375
1,1746313022890.5312,-17.08984375,-16.6015625,-52.24609375,-18.06640625
2,1746313022894.4375,-41.9921875,-24.4140625,-49.8046875,-30.2734375
3,1746313022898.3438,-23.4375,-25.390625,-26.3671875,-45.41015625
4,1746313022902.25,-1.953125,-20.5078125,-9.765625,-15.13671875
5,1746313022906.1562,-5.859375,-23.92578125,-25.390625,-20.5078125
6,1746313022910.0625,-24.90234375,-30.2734375,-36.62109375,-33.203125
7,1746313022913.9688,-21.97265625,-23.92578125,-21.484375,-19.53125
8,1746313022917.875,-8.30078125,-21.97265625,-36.62109375,-25.390625
9,1746313022921.7812,-75.68359375,-30.2734375,-53.22265625,-23.4375
10,1746313022925.6875,-46.875,-31.73828125,-41.015625,-27.83203125
11,1746313022929.5938,2.9296875,-29.78515625,-32.71484375,-50.78125
0,1746313022933.5,-10.7421875,-34.1796875,-25.390625,-30.2734375
1,1746313022937.4062,-60.05859375,-43.45703125,-33.203125,-31.73828125
2,1746313022941.3125,-61.5234375,-43.45703125,-45.8984375,-45.41015625
3,1746313022945.2188,-51.26953125,-43.45703125,-45.41015625,-20.5078125
4,1746313022949.125,-56.15234375,-37.59765625,-44.43359375,-11.71875
5,1746313022953.0312,-60.05859375,-37.109375,-38.0859375,-13.671875
6,1746313022956.9375,-23.4375,-33.203125,-37.109375,-28.3203125
7,1746313022960.8438,-17.578125,-13.18359375,-38.57421875,-35.15625
8,1746313022964.75,-77.1484375,-6.8359375,-29.78515625,-52.734375
9,1746313022968.6562,-47.8515625,-6.8359375,-32.71484375,-37.109375
10,1746313022972.5625,-17.578125,-14.16015625,-38.0859375,-16.6015625
11,1746313022976.4688,-6.34765625,-18.06640625,-50.78125,-34.66796875
0,1746313022980.375,-10.25390625,-30.2734375,-54.6875,-26.85546875
1,1746313022984.2812,-41.9921875,-39.0625,-29.296875,-31.73828125
2,1746313022988.1875,-9.27734375,-32.71484375,-11.71875,-32.2265625
3,1746313022992.0938,13.18359375,-30.76171875,-28.3203125,-32.2265625
4,1746313022996,-5.859375,-28.3203125,-49.8046875,-40.0390625
5,1746313022999.9062,-27.83203125,-25.87890625,-36.62109375,-40.0390625
6,1746313023003.8125,-42.48046875,-24.4140625,-28.80859375,-39.55078125
7,1746313023007.7188,-30.76171875,-27.83203125,-33.203125,-25.87890625
8,1746313023011.625,-7.8125,-32.71484375,-31.73828125,-20.01953125
9,1746313023015.5312,-40.52734375,-37.109375,-34.66796875,-31.25
10,1746313023019.4375,-80.078125,-29.78515625,-45.41015625,-22.94921875
11,1746313023023.3438,-68.84765625,-29.296875,-47.8515625,-19.04296875
0,1746313023027.25,-65.4296875,-46.38671875,-34.1796875,-17.08984375
1,1746313023031.1562,-8.7890625,-38.57421875,-35.64453125,-33.69140625
2,1746313023035.0625,-7.32421875,-24.4140625,-41.9921875,-68.359375
3,1746313023038.9688,-86.9140625,-24.4140625,-51.26953125,-60.05859375
4,1746313023042.875,-83.49609375,-20.5078125,-58.10546875,-62.01171875
5,1746313023046.7812,-66.40625,-18.06640625,-50.78125,-81.54296875
6,1746313023050.6875,-57.6171875,-19.04296875,-40.0390625,-90.33203125
7,1746313023054.5938,-25.390625,-22.94921875,-39.0625,-85.9375
8,1746313023058.5,8.30078125,-35.64453125,-48.33984375,-77.1484375
9,1746313023062.4062,-38.0859375,-34.1796875,-44.921875,-68.84765625
10,1746313023066.3125,-73.2421875,-30.2734375,-33.203125,-82.51953125
11,1746313023070.2188,-37.59765625,-37.109375,-38.0859375,-65.91796875
0,1746313023074.125,-37.59765625,-35.64453125,-45.41015625,-26.3671875
1,1746313023078.0312,-70.80078125,-15.13671875,-40.52734375,-57.6171875
2,1746313023081.9375,-100.09765625,0.48828125,-40.52734375,-86.42578125
3,1746313023085.8438,-76.171875,-10.25390625,-46.38671875,-55.6640625
4,1746313023089.75,-60.05859375,-6.8359375,-54.6875,-36.62109375
5,1746313023093.6562,6.34765625,-11.71875,-47.8515625,-66.40625
6,1746313023097.5625,-0.48828125,-41.9921875,-28.80859375,-41.9921875
7,1746313023101.4688,-87.890625,-45.8984375,-16.6015625,-34.66796875
8,1746313023105.375,-59.08203125,-37.109375,-18.06640625,-75.68359375
9,1746313023109.2812,-60.05859375,-39.0625,-36.62109375,-58.10546875
10,1746313023113.1875,-26.3671875,-28.80859375,-39.0625,-47.8515625
11,1746313023117.0938,20.01953125,-9.765625,-18.06640625,-69.3359375
0,1746313023121,-39.55078125,0,-18.06640625,-53.7109375
1,1746313023124.9062,-86.42578125,-12.6953125,-22.94921875,-21.97265625
2,1746313023128.8125,-47.36328125,-30.76171875,-19.53125,2.9296875
3,1746313023132.7188,-1.46484375,-30.76171875,-27.83203125,-3.41796875
4,1746313023136.625,26.85546875,-20.99609375,-41.9921875,-26.3671875
5,1746313023140.5312,27.34375,-20.99609375,-44.43359375,-54.6875
6,1746313023144.4375,3.90625,-32.71484375,-35.15625,-53.7109375
7,1746313023148.3438,-10.7421875,-43.9453125,-30.2734375,-22.4609375
8,1746313023152.25,-2.44140625,-50.78125,-38.57421875,-32.71484375
9,1746313023156.1562,-51.26953125,-41.015625,-45.41015625,-41.50390625
10,1746313023160.0625,-96.6796875,-36.62109375,-43.45703125,-24.4140625
11,1746313023163.9688,-31.73828125,-30.2734375,-56.15234375,-25.390625
0,1746313023167.875,-4.39453125,2.44140625,-80.078125,-32.71484375
1,1746313023171.7812,21.97265625,-5.859375,-62.01171875,-8.30078125
2,1746313023175.6875,-46.875,-30.2734375,-37.59765625,-10.7421875
3,1746313023179.5938,-93.26171875,-25.390625,-27.83203125,-52.24609375
4,1746313023183.5,-5.859375,-14.16015625,-15.625,-56.640625
5,1746313023187.4062,-11.23046875,-15.13671875,-12.6953125,-38.57421875
6,1746313023191.3125,-32.71484375,-46.38671875,-14.16015625,-32.2265625
7,1746313023195.2188,-5.859375,-57.6171875,-22.94921875,-31.73828125
8,1746313023199.125,-20.01953125,-36.1328125,-38.0859375,-50.78125
9,1746313023203.0312,-62.98828125,-20.01953125,-44.43359375,-35.64453125
10,1746313023206.9375,0.48828125,-8.30078125,-41.015625,-25.390625
11,1746313023210.8438,2.9296875,-15.13671875,-41.50390625,-21.97265625
0,1746313023214.75,-50.78125,-18.06640625,-42.96875,-5.859375
1,1746313023218.6562,-27.83203125,-29.78515625,-41.015625,-7.32421875
2,1746313023222.5625,-59.5703125,-37.59765625,-31.73828125,-25.390625
3,1746313023226.4688,-65.4296875,-38.0859375,-27.34375,-39.0625
4,1746313023230.375,-3.41796875,-40.0390625,-36.62109375,-41.015625
5,1746313023234.2812,85.44921875,-37.109375,-25.87890625,-17.08984375
6,1746313023238.1875,57.6171875,-47.8515625,-24.4140625,-21.97265625
7,1746313023242.0938,-100.09765625,-49.8046875,-30.2734375,-33.203125
8,1746313023246,-83.984375,-26.85546875,-26.3671875,-22.94921875
9,1746313023249.9062,2.9296875,-7.8125,-42.96875,-21.97265625
10,1746313023253.8125,23.92578125,-10.25390625,-56.640625,-14.16015625
11,1746313023257.7188,-15.13671875,-27.34375,-42.48046875,-39.0625
0,1746313023261.625,-38.0859375,-24.90234375,-28.3203125,-60.546875
1,1746313023265.5312,-39.0625,-26.85546875,-26.3671875,-38.0859375
2,1746313023269.4375,-63.96484375,-34.66796875,-35.15625,-35.15625
3,1746313023273.3438,-88.37890625,-25.87890625,-34.1796875,-33.69140625
4,1746313023277.25,-57.6171875,-32.2265625,-21.484375,-21.97265625
5,1746313023281.1562,-3.41796875,-33.203125,-31.25,-18.5546875
6,1746313023285.0625,28.3203125,-30.2734375,-39.55078125,-10.7421875
7,1746313023288.9688,116.2109375,-31.25,-34.1796875,-54.6875
8,1746313023292.875,36.1328125,-18.5546875,-38.0859375,-42.96875
9,1746313023296.7812,-94.23828125,-19.53125,-26.3671875,14.16015625
10,1746313023300.6875,-64.453125,-25.87890625,-28.3203125,3.90625
11,1746313023304.5938,-12.6953125,-27.34375,-37.59765625,-2.44140625
0,1746313023308.5,-6.34765625,-46.38671875,-23.92578125,1.953125
1,1746313023312.4062,-1.46484375,-55.6640625,-20.5078125,-7.32421875
2,1746313023316.3125,86.9140625,-23.4375,-42.48046875,-35.15625
3,1746313023320.2188,53.7109375,-16.11328125,-53.7109375,-19.04296875
4,1746313023324.125,-61.03515625,-34.1796875,-39.55078125,28.3203125
5,1746313023328.0312,-63.96484375,-23.92578125,-34.1796875,-16.6015625
6,1746313023331.9375,-39.55078125,-6.34765625,-34.1796875,-10.25390625
7,1746313023335.8438,16.11328125,-19.53125,-20.99609375,-2.44140625
8,1746313023339.75,20.01953125,-25.87890625,-21.484375,-9.765625
9,1746313023343.6562,-4.8828125,0,-38.57421875,12.6953125
10,1746313023347.5625,-0.9765625,5.859375,-44.43359375,-34.66796875
11,1746313023351.4688,-26.3671875,-4.8828125,-26.85546875,-58.10546875
0,1746313023355.375,-49.8046875,-15.625,-5.859375,-23.4375
1,1746313023359.2812,43.45703125,-37.109375,-35.15625,-3.90625
2,1746313023363.1875,32.71484375,-46.875,-61.5234375,-5.37109375
3,1746313023367.0938,-67.3828125,-36.62109375,-49.8046875,-42.48046875
4,1746313023371,-38.0859375,-58.59375,-41.9921875,-55.17578125
5,1746313023374.9062,-16.6015625,-48.828125,-47.8515625,-40.52734375
6,1746313023378.8125,14.16015625,0.9765625,-52.734375,-30.2734375
7,1746313023382.7188,25.87890625,11.23046875,-58.59375,-24.90234375
8,1746313023386.625,37.109375,-2.9296875,-51.26953125,-8.7890625
9,1746313023390.5312,25.390625,-10.7421875,-32.2265625,-3.90625
10,1746313023394.4375,-46.875,-16.11328125,-46.38671875,-40.0390625
11,1746313023398.3438,-41.015625,-29.78515625,-60.05859375,-31.25
0,1746313023402.25,64.94140625,-29.78515625,-46.38671875,36.1328125
1,1746313023406.1562,27.83203125,-7.32421875,-30.76171875,42.48046875
2,1746313023410.0625,-51.26953125,-7.32421875,-26.3671875,-19.53125
3,1746313023413.9688,-28.80859375,-20.01953125,-33.69140625,-16.6015625
4,1746313023417.875,-10.25390625,-19.04296875,-29.296875,-0.48828125
5,1746313023421.7812,10.7421875,-18.5546875,-25.390625,14.6484375
6,1746313023425.6875,9.27734375,-6.8359375,-30.2734375,39.0625
7,1746313023429.5938,-10.25390625,-15.13671875,-28.80859375,40.0390625
8,1746313023433.5,-8.7890625,-42.48046875,-19.53125,18.06640625
9,1746313023437.4062,-0.9765625,-35.64453125,-15.625,2.9296875
10,1746313023441.3125,11.71875,-21.97265625,-25.87890625,6.34765625
11,1746313023445.2188,-13.671875,-28.3203125,-55.6640625,-31.73828125
0,1746313023449.125,33.203125,-22.4609375,-47.36328125,-2.9296875
1,1746313023453.0312,35.15625,0.48828125,-31.25,37.109375
2,1746313023456.9375,-13.671875,-14.6484375,-35.64453125,22.4609375
3,1746313023460.8438,-3.41796875,-31.25,-35.15625,-24.4140625
4,1746313023464.75,-35.64453125,-18.06640625,-21.97265625,-18.06640625
5,1746313023468.6562,13.671875,-7.8125,-15.625,17.08984375
6,1746313023472.5625,24.4140625,-12.6953125,-25.390625,2.44140625
7,1746313023476.4688,-30.76171875,-25.87890625,-27.83203125,6.8359375
8,1746313023480.375,-22.4609375,-35.15625,-31.73828125,-20.5078125
9,1746313023484.2812,-15.13671875,-19.04296875,-38.57421875,-16.6015625
10,1746313023488.1875,-54.19921875,-15.625,-26.3671875,-6.8359375
11,1746313023492.0938,2.44140625,-34.1796875,-20.01953125,1.46484375
0,1746313023496,69.82421875,-40.52734375,-34.66796875,6.34765625
1,1746313023499.9062,-10.7421875,-21.97265625,-51.7578125,-10.7421875
2,1746313023503.8125,-30.76171875,-25.390625,-31.25,17.578125
3,1746313023507.7188,13.18359375,-70.80078125,-0.9765625,51.26953125
4,1746313023511.625,54.6875,-53.22265625,-31.73828125,2.9296875
5,1746313023515.5312,14.16015625,-12.6953125,-54.6875,-28.3203125
6,1746313023519.4375,-17.08984375,-8.7890625,-46.875,44.43359375
7,1746313023523.3438,-41.50390625,-18.5546875,-41.015625,10.25390625
8,1746313023527.25,-69.3359375,-19.53125,-30.2734375,-29.78515625
9,1746313023531.1562,-35.15625,-30.76171875,-22.94921875,21.97265625
10,1746313023535.0625,-23.92578125,-53.7109375,-20.5078125,32.71484375
11,1746313023538.9688,10.7421875,-43.45703125,-21.97265625,56.15234375
0,1746313023542.875,12.20703125,-49.31640625,-16.6015625,64.94140625
1,1746313023546.7812,-22.94921875,-60.546875,-19.53125,66.89453125
2,1746313023550.6875,-16.6015625,-38.57421875,-41.015625,50.78125
3,1746313023554.5938,41.50390625,-21.97265625,-43.9453125,28.80859375
4,1746313023558.5,-41.015625,-24.90234375,-30.2734375,27.83203125
5,1746313023562.4062,-65.91796875,-38.0859375,-20.01953125,32.2265625
6,1746313023566.3125,-17.08984375,-34.66796875,-28.3203125,13.671875
7,1746313023570.2188,-17.578125,-19.53125,-39.55078125,18.5546875
8,1746313023574.125,-13.18359375,-9.27734375,-35.64453125,26.3671875
9,1746313023578.0312,-33.69140625,-6.34765625,-41.50390625,31.25
10,1746313023581.9375,17.578125,-20.01953125,-39.0625,69.82421875
11,1746313023585.8438,4.39453125,-18.5546875,-29.296875,55.17578125
0,1746313023589.75,-51.26953125,-15.625,-25.390625,21.97265625
1,1746313023593.6562,-10.7421875,-10.25390625,-18.06640625,3.41796875
2,1746313023597.5625,21.97265625,-8.7890625,-19.04296875,41.9921875
3,1746313023601.4688,16.6015625,-23.4375,-23.92578125,57.6171875
4,1746313023605.375,25.87890625,-18.06640625,-31.73828125,6.34765625
5,1746313023609.2812,-6.34765625,-11.71875,-33.203125,9.27734375
6,1746313023613.1875,-22.94921875,-28.80859375,-41.015625,37.59765625
7,1746313023617.0938,14.16015625,-52.24609375,-42.96875,49.31640625
8,1746313023621,-42.48046875,-35.64453125,-21.97265625,94.23828125
9,1746313023624.9062,-47.8515625,-16.6015625,-22.4609375,37.109375
10,1746313023628.8125,-20.01953125,-16.6015625,-26.85546875,-22.4609375
11,1746313023632.7188,-15.625,-13.18359375,-40.0390625,46.38671875
0,1746313023636.625,-12.20703125,-9.765625,-46.38671875,90.33203125
1,1746313023640.5312,-2.44140625,-37.109375,-18.5546875,45.8984375
2,1746313023644.4375,-32.2265625,-54.6875,-1.953125,33.69140625
3,1746313023648.3438,-48.33984375,-33.69140625,-13.18359375,46.38671875
4,1746313023652.25,22.4609375,-19.04296875,-20.01953125,47.8515625
5,1746313023656.1562,-1.46484375,-36.62109375,-35.64453125,53.22265625
6,1746313023660.0625,-31.73828125,-48.33984375,-45.8984375,35.64453125
7,1746313023663.9688,-23.92578125,-30.76171875,-30.76171875,29.296875
8,1746313023667.875,6.34765625,-37.109375,-22.4609375,32.71484375
9,1746313023671.7812,20.99609375,-49.8046875,-8.30078125,49.31640625
10,1746313023675.6875,-6.34765625,-40.52734375,2.9296875,83.0078125
11,1746313023679.5938,-15.13671875,-25.390625,-4.8828125,42.96875
0,1746313023683.5,-9.765625,-28.3203125,-12.20703125,36.1328125
1,1746313023687.4062,0.9765625,-57.12890625,-31.73828125,66.40625
2,1746313023691.3125,-5.37109375,-69.82421875,-47.36328125,31.73828125
3,1746313023695.2188,-52.734375,-68.84765625,-25.390625,14.16015625
4,1746313023699.125,-68.359375,-59.08203125,-22.4609375,19.53125
5,1746313023703.0312,-20.5078125,-49.8046875,-24.4140625,10.7421875
6,1746313023706.9375,9.27734375,-59.08203125,-37.109375,41.50390625
7,1746313023710.8438,-13.18359375,-47.36328125,-51.26953125,43.9453125
8,1746313023714.75,35.64453125,-30.2734375,-29.296875,37.109375
9,1746313023718.6562,41.015625,-36.62109375,-6.34765625,38.0859375
10,1746313023722.5625,-129.39453125,-43.45703125,-5.859375,41.9921875
11,1746313023726.4688,-127.9296875,-59.5703125,-9.765625,41.9921875
0,1746313023730.375,-34.66796875,-76.66015625,-14.6484375,9.765625
1,1746313023734.2812,-26.3671875,-54.19921875,-30.2734375,-16.11328125
2,1746313023738.1875,-39.55078125,-51.26953125,-35.15625,9.27734375
3,1746313023742.0938,-3.41796875,-62.5,-29.78515625,18.5546875
4,1746313023746,11.71875,-52.734375,-17.08984375,11.23046875
5,1746313023749.9062,28.3203125,-62.5,-15.625,58.10546875
6,1746313023753.8125,-6.8359375,-67.87109375,-35.15625,38.0859375
7,1746313023757.7188,-59.08203125,-62.5,-37.109375,3.90625
8,1746313023761.625,-44.921875,-67.3828125,-29.78515625,7.8125
9,1746313023765.5312,-18.06640625,-81.54296875,-25.390625,-0.9765625
10,1746313023769.4375,3.90625,-76.66015625,-40.52734375,0
11,1746313023773.3438,-41.015625,-42.48046875,-40.0390625,3.41796875
0,1746313023777.25,-35.15625,-26.3671875,-31.73828125,-11.23046875
1,1746313023781.1562,-14.16015625,-32.71484375,-37.59765625,-14.6484375
2,1746313023785.0625,-39.0625,-43.9453125,-11.71875,-5.859375
3,1746313023788.9688,7.8125,-54.6875,-3.41796875,1.953125
4,1746313023792.875,-4.39453125,-57.6171875,-20.01953125,11.71875
5,1746313023796.7812,-42.48046875,-49.31640625,-29.78515625,20.5078125
6,1746313023800.6875,-36.1328125,-52.24609375,-27.34375,7.8125
7,1746313023804.5938,-11.71875,-57.6171875,-32.71484375,8.7890625
8,1746313023808.5,6.8359375,-59.08203125,-39.0625,20.99609375
9,1746313023812.4062,-35.64453125,-45.8984375,-42.48046875,13.671875
10,1746313023816.3125,-50.78125,-29.78515625,-43.45703125,-30.2734375
11,1746313023820.2188,8.30078125,-35.15625,-42.96875,-40.52734375
0,1746313023824.125,-1.953125,-37.59765625,-45.41015625,-6.34765625
1,1746313023828.0312,-21.484375,-31.73828125,-43.45703125,-20.5078125
2,1746313023831.9375,24.90234375,-31.73828125,-41.50390625,-15.13671875
3,1746313023835.8438,43.9453125,-34.1796875,-43.9453125,-10.7421875
4,1746313023839.75,-29.296875,-43.45703125,-43.9453125,-11.71875
5,1746313023843.6562,-51.26953125,-60.546875,-36.62109375,5.37109375
6,1746313023847.5625,-0.9765625,-68.359375,-35.15625,13.18359375
7,1746313023851.4688,-11.71875,-48.828125,-33.69140625,-18.06640625
8,1746313023855.375,-52.24609375,-39.0625,-34.66796875,-29.78515625
9,1746313023859.2812,0.9765625,-40.0390625,-43.45703125,-20.01953125
10,1746313023863.1875,34.1796875,-33.69140625,-52.24609375,5.859375
11,1746313023867.0938,-22.4609375,-29.296875,-37.59765625,7.32421875
0,1746313023871,-26.85546875,-27.34375,-22.4609375,6.34765625
1,1746313023874.9062,-43.9453125,-39.0625,-33.203125,33.203125
2,1746313023878.8125,-26.3671875,-45.8984375,-41.015625,2.9296875
3,1746313023882.7188,-31.73828125,-45.8984375,-39.55078125,-7.32421875
4,1746313023886.625,-6.34765625,-51.26953125,-36.1328125,-3.90625
5,1746313023890.5312,7.32421875,-58.10546875,-30.76171875,-16.6015625
6,1746313023894.4375,-21.97265625,-55.6640625,-27.34375,-33.69140625
7,1746313023898.3438,-42.48046875,-53.22265625,-51.26953125,-32.2265625
8,1746313023902.25,-32.71484375,-54.6875,-66.40625,29.296875
9,1746313023906.1562,-9.27734375,-45.41015625,-32.2265625,15.13671875
10,1746313023910.0625,-6.34765625,-37.109375,-9.765625,-51.26953125
11,1746313023913.9688,-28.3203125,-41.50390625,-14.16015625,-18.06640625
0,1746313023917.875,-40.52734375,-48.828125,-26.85546875,-11.23046875
1,1746313023921.7812,-13.18359375,-55.17578125,-29.296875,-9.765625
2,1746313023925.6875,62.01171875,-52.734375,-34.1796875,31.73828125
3,1746313023929.5938,-0.9765625,-50.29296875,-33.69140625,29.296875
4,1746313023933.5,-99.609375,-48.828125,-24.90234375,0.48828125
5,1746313023937.4062,-55.6640625,-39.55078125,-29.296875,-21.484375
6,1746313023941.3125,-24.90234375,-43.9453125,-32.2265625,0.9765625
7,1746313023945.2188,-0.48828125,-57.6171875,-26.85546875,19.04296875
8,1746313023949.125,-9.765625,-53.22265625,-23.4375,19.53125
9,1746313023953.0312,-30.76171875,-38.0859375,-30.2734375,30.76171875
10,1746313023956.9375,-36.62109375,-34.66796875,-24.4140625,21.97265625
11,1746313023960.8438,-21.97265625,-55.17578125,-23.4375,22.4609375
0,1746313023964.75,-48.828125,-57.12890625,-19.53125,29.78515625
1,1746313023968.6562,-58.59375,-44.43359375,-20.01953125,55.6640625
2,1746313023972.5625,-26.3671875,-46.38671875,-27.34375,15.13671875
3,1746313023976.4688,-21.484375,-45.8984375,-21.97265625,-26.3671875
4,1746313023980.375,-30.76171875,-44.43359375,-21.97265625,10.7421875
5,1746313023984.2812,-10.7421875,-50.78125,-28.80859375,32.71484375
6,1746313023988.1875,20.5078125,-56.640625,-30.2734375,7.32421875
7,1746313023992.0938,-29.296875,-52.24609375,-27.34375,3.41796875
8,1746313023996,25.87890625,-35.64453125,-28.80859375,37.59765625
9,1746313023999.9062,49.8046875,-25.390625,-37.59765625,16.6015625
10,1746313024003.8125,-62.5,-26.85546875,-50.78125,-2.44140625
11,1746313024007.7188,-37.109375,-32.71484375,-47.36328125,13.671875
0,1746313024011.625,-20.5078125,-47.36328125,-25.87890625,27.34375
1,1746313024015.5312,-38.57421875,-52.24609375,-30.76171875,47.36328125
2,1746313024019.4375,-4.39453125,-38.57421875,-33.203125,12.20703125
3,1746313024023.3438,26.85546875,-32.71484375,-24.90234375,6.8359375
4,1746313024027.25,-23.4375,-38.57421875,-31.73828125,43.45703125
5,1746313024031.1562,-4.8828125,-29.296875,-41.015625,52.734375
6,1746313024035.0625,54.19921875,-16.11328125,-48.828125,16.6015625
7,1746313024038.9688,6.8359375,-24.4140625,-54.19921875,32.2265625
8,1746313024042.875,-22.94921875,-49.8046875,-49.8046875,3.41796875
9,1746313024046.7812,11.23046875,-61.03515625,-32.71484375,-14.6484375
10,1746313024050.6875,38.0859375,-34.66796875,-35.64453125,15.625
11,1746313024054.5938,15.13671875,-10.7421875,-36.1328125,57.12890625
0,1746313024058.5,10.7421875,-20.99609375,-34.1796875,65.91796875
1,1746313024062.4062,-16.11328125,-23.92578125,-38.0859375,49.31640625
2,1746313024066.3125,-62.01171875,-17.08984375,-29.78515625,41.9921875
3,1746313024070.2188,-1.46484375,-25.390625,-37.109375,54.6875
4,1746313024074.125,10.7421875,-31.25,-36.62109375,51.26953125
5,1746313024078.0312,-56.640625,-34.1796875,-24.90234375,20.01953125
6,1746313024081.9375,-7.32421875,-33.203125,-43.45703125,91.796875
7,1746313024085.8438,-1.953125,-42.48046875,-37.109375,80.078125
8,1746313024089.75,-41.015625,-48.828125,-13.671875,55.17578125
9,1746313024093.6562,-6.34765625,-31.73828125,-21.97265625,53.7109375
10,1746313024097.5625,32.2265625,-22.4609375,-23.4375,33.69140625
11,1746313024101.4688,-4.8828125,-30.2734375,-23.92578125,22.94921875
0,1746313024105.375,-83.49609375,-33.203125,-31.73828125,46.38671875
1,1746313024109.2812,-55.17578125,-44.43359375,-34.1796875,74.70703125
2,1746313024113.1875,-16.11328125,-48.828125,-34.1796875,78.61328125
3,1746313024117.0938,-33.69140625,-43.9453125,-37.59765625,53.7109375
4,1746313024121,-45.41015625,-62.5,-45.41015625,31.73828125
5,1746313024124.9062,-27.34375,-54.19921875,-35.64453125,32.2265625
6,1746313024128.8125,-4.8828125,-32.2265625,-20.5078125,63.4765625
7,1746313024132.7188,-14.16015625,-42.48046875,-19.53125,62.01171875
8,1746313024136.625,-29.78515625,-41.50390625,-22.4609375,14.16015625
9,1746313024140.5312,18.5546875,-38.57421875,-38.57421875,32.71484375
10,1746313024144.4375,-6.34765625,-41.015625,-46.875,52.734375
11,1746313024148.3438,-51.7578125,-54.6875,-31.73828125,51.7578125
0,1746313024152.25,-19.04296875,-70.3125,-28.3203125,54.19921875
1,1746313024156.1562,-46.875,-61.5234375,-34.66796875,37.59765625
2,1746313024160.0625,-41.50390625,-50.78125,-39.0625,49.31640625
3,1746313024163.9688,-41.015625,-47.36328125,-37.109375,49.8046875
4,1746313024167.875,-13.671875,-46.875,-33.203125,73.73046875
5,1746313024171.7812,-25.87890625,-49.8046875,-35.64453125,78.125
6,1746313024175.6875,-79.58984375,-56.15234375,-43.9453125,9.765625
7,1746313024179.5938,-52.734375,-62.98828125,-43.45703125,32.71484375
8,1746313024183.5,-49.8046875,-62.98828125,-35.64453125,45.41015625
9,1746313024187.4062,-51.7578125,-63.4765625,-38.0859375,24.90234375
10,1746313024191.3125,-47.8515625,-59.08203125,-40.52734375,29.296875
11,1746313024195.2188,-62.01171875,-57.6171875,-42.48046875,-10.7421875
0,1746313024199.125,-49.8046875,-55.17578125,-55.17578125,-8.30078125
1,1746313024203.0312,-27.83203125,-54.6875,-57.6171875,22.94921875
2,1746313024206.9375,-71.77734375,-55.17578125,-41.50390625,7.8125
3,1746313024210.8438,-103.515625,-50.29296875,-32.71484375,-11.71875
4,1746313024214.75,-39.0625,-56.640625,-38.0859375,-22.94921875
5,1746313024218.6562,-48.33984375,-56.15234375,-41.50390625,1.953125
6,1746313024222.5625,-174.8046875,-51.7578125,-38.57421875,25.390625
7,1746313024226.4688,-160.64453125,-55.17578125,-30.2734375,-10.25390625
8,1746313024230.375,-119.140625,-63.4765625,-23.92578125,-32.2265625
9,1746313024234.2812,-131.34765625,-70.80078125,-20.01953125,-24.4140625
10,1746313024238.1875,-114.2578125,-72.265625,-25.390625,-24.4140625
11,1746313024242.0938,-134.27734375,-67.3828125,-24.4140625,-30.76171875
0,1746313024246,-150.87890625,-65.91796875,-20.99609375,-51.7578125
1,1746313024249.9062,-126.46484375,-69.82421875,-23.4375,-25.87890625
2,1746313024253.8125,-133.7890625,-68.359375,-22.4609375,-15.625
3,1746313024257.7188,-182.12890625,-71.77734375,-17.08984375,-75.1953125
4,1746313024261.625,-181.15234375,-72.75390625,-21.484375,-73.73046875
5,1746313024265.5312,-166.9921875,-61.03515625,-25.87890625,-74.21875
6,1746313024269.4375,-177.734375,-63.96484375,-20.5078125,-60.546875
7,1746313024273.3438,-160.64453125,-64.94140625,-20.01953125,-57.12890625
8,1746313024277.25,-140.625,-58.59375,-23.4375,-70.80078125
9,1746313024281.1562,-160.64453125,-62.98828125,-22.94921875,-57.6171875
10,1746313024285.0625,-137.20703125,-65.4296875,-17.08984375,-63.4765625
11,1746313024288.9688,-127.44140625,-62.01171875,-13.671875,-42.96875
0,1746313024292.875,-158.203125,-60.05859375,-11.23046875,-53.7109375
1,1746313024296.7812,-162.59765625,-69.82421875,-11.71875,-31.73828125
2,1746313024300.6875,-100.5859375,-63.96484375,-9.765625,8.7890625
3,1746313024304.5938,-70.3125,-56.640625,-7.32421875,-22.4609375
4,1746313024308.5,-138.18359375,-68.359375,-8.30078125,-22.94921875
5,1746313024312.4062,-135.25390625,-69.3359375,-9.765625,0.9765625
6,1746313024316.3125,-98.14453125,-68.84765625,-13.671875,5.37109375
7,1746313024320.2188,-78.61328125,-65.91796875,-11.23046875,21.484375
8,1746313024324.125,-55.6640625,-62.01171875,-6.34765625,30.76171875
9,1746313024328.0312,-35.15625,-59.08203125,-9.27734375,39.55078125
10,1746313024331.9375,-18.5546875,-57.6171875,-7.32421875,69.3359375
11,1746313024335.8438,3.90625,-62.5,-3.41796875,76.66015625
0,1746313024339.75,-16.6015625,-65.91796875,-11.71875,74.21875
1,1746313024343.6562,-10.7421875,-65.91796875,-10.7421875,104.00390625
2,1746313024347.5625,19.53125,-62.5,-2.44140625,107.421875
3,1746313024351.4688,-18.06640625,-63.4765625,-3.90625,133.7890625
4,1746313024355.375,-2.9296875,-65.91796875,-7.8125,147.4609375
5,1746313024359.2812,32.71484375,-64.453125,-15.13671875,121.58203125
6,1746313024363.1875,51.26953125,-65.91796875,-20.5078125,125
7,1746313024367.0938,70.80078125,-69.82421875,-20.5078125,138.18359375
8,1746313024371,43.9453125,-67.3828125,-19.04296875,165.0390625
9,1746313024374.9062,51.26953125,-64.94140625,-14.16015625,168.9453125
10,1746313024378.8125,59.5703125,-64.453125,-13.671875,158.203125
11,1746313024382.7188,51.26953125,-64.453125,-18.06640625,161.62109375
0,1746313024386.625,66.40625,-66.89453125,-25.390625,163.0859375
1,1746313024390.5312,38.57421875,-67.87109375,-23.4375,137.6953125
2,1746313024394.4375,77.63671875,-70.3125,-18.06640625,150.87890625
3,1746313024398.3438,92.7734375,-63.4765625,-24.4140625,162.109375
4,1746313024402.25,12.6953125,-47.36328125,-27.34375,145.99609375
5,1746313024406.1562,85.9375,-37.109375,-31.73828125,145.99609375
6,1746313024410.0625,88.8671875,-50.78125,-35.15625,140.13671875
7,1746313024413.9688,9.765625,-54.6875,-31.25,120.1171875
8,1746313024417.875,14.16015625,-50.78125,-31.73828125,118.65234375
9,1746313024421.7812,35.64453125,-49.31640625,-35.15625,108.3984375
10,1746313024425.6875,34.66796875,-38.0859375,-32.71484375,90.8203125
11,1746313024429.5938,47.36328125,-27.83203125,-20.5078125,83.0078125
0,1746313024433.5,55.17578125,-31.25,-16.11328125,77.63671875
1,1746313024437.4062,24.90234375,-41.9921875,-35.15625,73.73046875
2,1746313024441.3125,15.625,-52.734375,-44.43359375,58.10546875
3,1746313024445.2188,-8.30078125,-58.59375,-33.203125,64.453125
4,1746313024449.125,-12.6953125,-45.8984375,-24.4140625,86.9140625
5,1746313024453.0312,1.953125,-35.64453125,-29.296875,90.33203125
6,1746313024456.9375,-1.953125,-35.64453125,-37.109375,54.19921875
7,1746313024460.8438,-9.765625,-33.203125,-36.62109375,32.71484375
8,1746313024464.75,-17.08984375,-46.875,-39.55078125,50.78125
9,1746313024468.6562,-21.97265625,-62.01171875,-42.48046875,28.3203125
10,1746313024472.5625,-11.71875,-53.22265625,-38.57421875,20.01953125
11,1746313024476.4688,-36.1328125,-46.38671875,-33.69140625,50.78125
0,1746313024480.375,9.765625,-52.734375,-35.15625,33.69140625
1,1746313024484.2812,31.25,-45.41015625,-43.45703125,19.53125
2,1746313024488.1875,-45.41015625,-43.9453125,-40.0390625,52.24609375
3,1746313024492.0938,-52.24609375,-45.8984375,-31.73828125,12.20703125
4,1746313024496,-36.62109375,-38.57421875,-29.78515625,-4.39453125
5,1746313024499.9062,-39.0625,-39.0625,-26.3671875,15.625
6,1746313024503.8125,-36.1328125,-30.76171875,-17.578125,18.5546875
7,1746313024507.7188,-13.671875,-30.76171875,-21.97265625,14.6484375
8,1746313024511.625,-9.765625,-46.875,-39.0625,11.71875
9,1746313024515.5312,-37.59765625,-45.8984375,-40.0390625,6.34765625
10,1746313024519.4375,-30.2734375,-39.0625,-28.3203125,36.1328125
11,1746313024523.3438,-31.25,-38.57421875,-22.4609375,15.13671875
0,1746313024527.25,-29.296875,-32.2265625,-23.92578125,-9.765625
1,1746313024531.1562,12.6953125,-30.2734375,-21.97265625,8.30078125
2,1746313024535.0625,-34.66796875,-36.62109375,-16.11328125,4.39453125
3,1746313024538.9688,-42.96875,-40.52734375,-17.08984375,16.11328125
4,1746313024542.875,-42.48046875,-35.64453125,-23.92578125,-5.859375
5,1746313024546.7812,-59.08203125,-28.3203125,-31.73828125,-31.73828125
6,1746313024550.6875,-34.66796875,-36.62109375,-34.1796875,-9.27734375
7,1746313024554.5938,-26.3671875,-42.48046875,-26.85546875,1.46484375
8,1746313024558.5,-26.3671875,-27.34375,-23.92578125,-15.625
9,1746313024562.4062,-26.3671875,-29.296875,-25.87890625,14.16015625
10,1746313024566.3125,-25.390625,-34.1796875,-22.4609375,23.4375
11,1746313024570.2188,-9.765625,-29.296875,-20.5078125,-3.90625
0,1746313024574.125,11.71875,-22.94921875,-18.5546875,14.6484375
1,1746313024578.0312,-12.6953125,-21.484375,-20.99609375,41.015625
2,1746313024581.9375,-62.01171875,-27.83203125,-23.4375,-0.9765625
3,1746313024585.8438,-57.12890625,-35.64453125,-26.85546875,-16.11328125
4,1746313024589.75,-36.62109375,-28.3203125,-30.2734375,11.23046875
5,1746313024593.6562,-31.73828125,-22.94921875,-27.34375,20.5078125
6,1746313024597.5625,-20.99609375,-35.64453125,-31.73828125,-28.3203125
7,1746313024601.4688,-38.0859375,-39.0625,-37.109375,-29.78515625
8,1746313024605.375,-36.1328125,-36.1328125,-33.203125,-9.765625
9,1746313024609.2812,-20.01953125,-37.109375,-30.76171875,-13.671875
10,1746313024613.1875,-56.15234375,-38.0859375,-38.57421875,-11.71875
11,1746313024617.0938,-23.92578125,-25.87890625,-40.0390625,-17.08984375
0,1746313024621,-18.06640625,-22.94921875,-37.109375,-1.953125
1,1746313024624.9062,-60.546875,-39.55078125,-39.0625,-17.08984375
2,1746313024628.8125,-60.546875,-40.52734375,-39.55078125,-25.87890625
3,1746313024632.7188,-46.875,-31.73828125,-36.1328125,-30.76171875
4,1746313024636.625,-27.34375,-27.83203125,-37.109375,-34.66796875
5,1746313024640.5312,-20.5078125,-30.2734375,-42.48046875,-22.94921875
6,1746313024644.4375,-38.57421875,-36.62109375,-37.109375,-19.04296875
7,1746313024648.3438,-28.80859375,-36.1328125,-35.15625,-15.13671875
8,1746313024652.25,-19.04296875,-28.80859375,-37.59765625,-12.20703125
9,1746313024656.1562,-63.4765625,-36.1328125,-31.73828125,15.13671875
10,1746313024660.0625,-73.2421875,-41.9921875,-31.25,2.44140625
11,1746313024663.9688,-63.96484375,-36.62109375,-33.69140625,-33.69140625
0,1746313024667.875,-20.5078125,-32.71484375,-37.109375,-57.12890625
1,1746313024671.7812,-1.46484375,-30.76171875,-36.1328125,-15.625
2,1746313024675.6875,-1.953125,-30.76171875,-31.73828125,0.48828125
3,1746313024679.5938,-12.6953125,-33.69140625,-33.69140625,-34.1796875
4,1746313024683.5,-62.5,-38.57421875,-37.109375,-15.13671875
5,1746313024687.4062,-30.2734375,-34.66796875,-41.015625,-11.71875
6,1746313024691.3125,-20.01953125,-30.2734375,-38.57421875,-19.53125
7,1746313024695.2188,-58.59375,-34.1796875,-35.15625,-7.8125
8,1746313024699.125,-35.64453125,-32.2265625,-34.66796875,-16.6015625
9,1746313024703.0312,1.953125,-27.34375,-33.203125,-36.1328125
10,1746313024706.9375,-21.97265625,-36.62109375,-34.66796875,-41.9921875
11,1746313024710.8438,-59.08203125,-47.36328125,-32.71484375,-20.01953125
0,1746313024714.75,-68.84765625,-44.43359375,-34.66796875,-12.6953125
1,1746313024718.6562,-59.08203125,-37.59765625,-36.62109375,-16.6015625
2,1746313024722.5625,-54.6875,-38.0859375,-34.1796875,-19.04296875
3,1746313024726.4688,-57.12890625,-40.52734375,-32.71484375,-32.71484375
4,1746313024730.375,-31.25,-34.66796875,-29.296875,-28.3203125
5,1746313024734.2812,-30.76171875,-24.4140625,-35.15625,-31.73828125
6,1746313024738.1875,-39.0625,-25.87890625,-38.57421875,-26.3671875
7,1746313024742.0938,-68.84765625,-35.64453125,-31.25,-24.90234375
8,1746313024746,-87.890625,-29.78515625,-28.3203125,-19.04296875
9,1746313024749.9062,-44.921875,-23.4375,-31.25,-13.18359375
10,1746313024753.8125,-36.62109375,-31.73828125,-32.71484375,-41.015625
11,1746313024757.7188,-32.2265625,-41.015625,-32.2265625,-46.875
0,1746313024761.625,-8.7890625,-37.109375,-33.69140625,-50.78125
1,1746313024765.5312,-21.484375,-29.78515625,-33.203125,-58.10546875
2,1746313024769.4375,-45.8984375,-27.34375,-28.3203125,-23.92578125
3,1746313024773.3438,-25.87890625,-29.296875,-26.3671875,-22.4609375
4,1746313024777.25,-24.90234375,-30.76171875,-33.203125,-21.97265625
5,1746313024781.1562,-34.66796875,-27.34375,-31.25,-29.78515625
6,1746313024785.0625,-13.18359375,-26.85546875,-28.3203125,-36.1328125
7,1746313024788.9688,6.34765625,-27.83203125,-31.25,-14.6484375
8,1746313024792.875,4.8828125,-25.390625,-33.69140625,-27.34375
9,1746313024796.7812,-6.34765625,-23.92578125,-30.2734375,-49.31640625
10,1746313024800.6875,12.20703125,-27.83203125,-23.4375,-26.3671875
11,1746313024804.5938,0.9765625,-31.25,-25.390625,-20.01953125
0,1746313024808.5,5.859375,-26.85546875,-30.76171875,-36.62109375
1,1746313024812.4062,35.64453125,-21.97265625,-30.76171875,-37.109375
2,1746313024816.3125,23.4375,-26.85546875,-32.2265625,-24.4140625
3,1746313024820.2188,46.38671875,-29.78515625,-34.1796875,-13.18359375
4,1746313024824.125,54.6875,-38.0859375,-30.2734375,-33.69140625
5,1746313024828.0312,-37.59765625,-45.41015625,-28.3203125,-38.57421875
6,1746313024831.9375,-26.3671875,-39.0625,-31.73828125,-29.296875
7,1746313024835.8438,5.37109375,-33.203125,-32.2265625,-44.43359375
8,1746313024839.75,15.13671875,-27.83203125,-26.3671875,-29.296875
9,1746313024843.6562,7.8125,-28.3203125,-27.83203125,-25.390625
10,1746313024847.5625,-8.7890625,-36.62109375,-32.71484375,-51.26953125
11,1746313024851.4688,-8.30078125,-39.55078125,-29.296875,-50.29296875
0,1746313024855.375,-20.01953125,-40.52734375,-38.0859375,-62.98828125
1,1746313024859.2812,3.90625,-47.36328125,-46.875,-65.91796875
2,1746313024863.1875,-19.53125,-42.96875,-42.96875,-68.84765625
3,1746313024867.0938,-41.9921875,-41.015625,-41.015625,-68.84765625
4,1746313024871,-36.1328125,-45.8984375,-37.109375,-52.24609375
5,1746313024874.9062,0.9765625,-44.43359375,-34.66796875,-47.8515625
6,1746313024878.8125,17.08984375,-51.26953125,-31.73828125,-48.828125
7,1746313024882.7188,-72.265625,-54.6875,-33.69140625,-63.96484375
8,1746313024886.625,-58.10546875,-50.29296875,-33.69140625,-65.4296875
9,1746313024890.5312,-8.7890625,-44.921875,-35.15625,-62.5
10,1746313024894.4375,-16.11328125,-40.0390625,-37.59765625,-66.40625
11,1746313024898.3438,-4.8828125,-41.015625,-32.71484375,-71.77734375
0,1746313024902.25,-14.16015625,-41.50390625,-33.203125,-66.89453125
1,1746313024906.1562,-37.59765625,-39.0625,-34.1796875,-48.828125
2,1746313024910.0625,-11.71875,-46.38671875,-37.59765625,-63.4765625
3,1746313024913.9688,25.87890625,-45.8984375,-36.1328125,-53.22265625
4,1746313024917.875,-21.484375,-32.71484375,-32.2265625,-47.36328125
5,1746313024921.7812,-39.55078125,-25.390625,-32.2265625,-69.82421875
6,1746313024925.6875,-33.69140625,-28.80859375,-39.55078125,-95.703125
7,1746313024929.5938,-26.85546875,-44.43359375,-42.48046875,-80.56640625
8,1746313024933.5,-25.390625,-42.96875,-36.62109375,-60.05859375
9,1746313024937.4062,-14.6484375,-38.57421875,-33.203125,-90.33203125
10,1746313024941.3125,-14.16015625,-41.015625,-30.2734375,-87.890625
11,1746313024945.2188,-74.70703125,-48.828125,-33.203125,-62.98828125
0,1746313024949.125,-73.2421875,-44.43359375,-37.109375,-58.10546875
1,1746313024953.0312,-46.875,-32.71484375,-27.83203125,-60.05859375
2,1746313024956.9375,-40.52734375,-54.6875,-33.203125,-96.19140625
3,1746313024960.8438,-44.43359375,-47.36328125,-47.36328125,-96.19140625
4,1746313024964.75,-58.59375,-28.3203125,-43.45703125,-59.5703125
5,1746313024968.6562,-32.71484375,-40.52734375,-35.64453125,-54.19921875
6,1746313024972.5625,-53.7109375,-53.7109375,-38.57421875,-58.10546875
7,1746313024976.4688,-52.734375,-53.22265625,-39.0625,-69.3359375
8,1746313024980.375,-37.109375,-42.96875,-38.0859375,-100.09765625
9,1746313024984.2812,-72.75390625,-57.6171875,-46.875,-121.58203125
10,1746313024988.1875,-114.2578125,-102.05078125,-81.0546875,-138.671875
11,1746313024992.0938,-95.703125,-103.515625,-93.75,-150.390625
0,1746313024996,-61.03515625,-82.03125,-70.80078125,-148.4375
1,1746313024999.9062,-72.265625,-63.4765625,-50.29296875,-96.6796875
2,1746313025003.8125,-29.296875,-54.6875,-31.25,-63.4765625
3,1746313025007.7188,-64.453125,-103.02734375,-73.73046875,-125.9765625
4,1746313025011.625,-170.8984375,-125,-107.421875,-178.7109375
5,1746313025015.5312,-212.40234375,-145.99609375,-122.0703125,-244.140625
6,1746313025019.4375,-208.49609375,-168.45703125,-123.53515625,-252.44140625
7,1746313025023.3438,-61.5234375,-87.40234375,-45.8984375,-116.2109375
8,1746313025027.25,31.73828125,-27.34375,-68.84765625,-52.24609375
9,1746313025031.1562,-26.3671875,-60.546875,-130.859375,-87.890625
10,1746313025035.0625,-153.80859375,-157.2265625,-182.6171875,-182.12890625
11,1746313025038.9688,-207.51953125,-229.00390625,-236.328125,-265.13671875
0,1746313025042.875,-216.796875,-258.30078125,-239.74609375,-294.921875
1,1746313025046.7812,-297.36328125,-306.640625,-268.5546875,-354.00390625
2,1746313025050.6875,-379.8828125,-400.390625,-340.33203125,-447.265625
3,1746313025054.5938,-503.90625,-545.41015625,-457.51953125,-600.09765625
4,1746313025058.5,-614.2578125,-628.41796875,-537.59765625,-706.0546875
5,1746313025062.4062,-754.8828125,-755.859375,-636.23046875,-818.359375
6,1746313025066.3125,-768.06640625,-819.3359375,-652.83203125,-820.80078125
7,1746313025070.2188,-774.90234375,-875.9765625,-679.19921875,-851.5625
8,1746313025074.125,-960.44921875,-1000,-829.1015625,-1000
9,1746313025078.0312,-1000,-1000,-861.328125,-1000
10,1746313025081.9375,-995.1171875,-997.55859375,-930.6640625,-997.0703125
11,1746313025085.8438,-1000,-1000,-998.046875,-1000
0,1746313025089.75,-1000,-1000,-955.078125,-1000
1,1746313025093.6562,-1000,-1000,-966.30859375,-1000
2,1746313025097.5625,-1000,-1000,-1000,-1000
3,1746313025101.4688,-1000,-1000,-980.95703125,-1000
4,1746313025105.375,-1000,-1000,-911.1328125,-1000
5,1746313025109.2812,-1000,-1000,-805.6640625,-1000
6,1746313025113.1875,-1000,-1000,-624.51171875,-1000
7,1746313025117.0938,-999.0234375,-1000,-498.53515625,-1000
8,1746313025121,-999.0234375,-1000,-488.28125,-1000
9,1746313025124.9062,-990.72265625,-998.53515625,-386.23046875,-1000
10,1746313025128.8125,-909.66796875,-1000,-252.44140625,-1000
11,1746313025132.7188,-758.30078125,-978.02734375,-149.4140625,-997.0703125
0,1746313025136.625,-648.4375,-900.87890625,-107.421875,-1000
1,1746313025140.5312,-583.49609375,-812.01171875,-135.7421875,-978.02734375
2,1746313025144.4375,-509.765625,-698.73046875,-136.71875,-869.140625
3,1746313025148.3438,-424.8046875,-583.0078125,-110.3515625,-763.18359375
4,1746313025152.25,-355.95703125,-509.27734375,-87.890625,-675.29296875
5,1746313025156.1562,-343.26171875,-482.91015625,-88.37890625,-631.8359375
6,1746313025160.0625,-331.0546875,-457.51953125,-98.14453125,-617.67578125
7,1746313025163.9688,-329.58984375,-438.4765625,-133.30078125,-589.35546875
8,1746313025167.875,-273.4375,-360.3515625,-79.1015625,-510.25390625
9,1746313025171.7812,-77.1484375,-147.94921875,115.72265625,-325.68359375
10,1746313025175.6875,99.12109375,43.45703125,249.0234375,-140.13671875
11,1746313025179.5938,155.76171875,127.44140625,287.109375,-39.0625
0,1746313025183.5,168.9453125,135.25390625,295.8984375,16.6015625
1,1746313025187.4062,149.90234375,117.67578125,255.859375,-15.625
2,1746313025191.3125,127.9296875,120.1171875,217.7734375,-31.73828125
3,1746313025195.2188,112.79296875,104.4921875,181.15234375,-40.52734375
4,1746313025199.125,83.49609375,76.171875,143.06640625,-63.96484375
5,1746313025203.0312,75.68359375,90.8203125,148.92578125,-58.59375
6,1746313025206.9375,75.68359375,95.21484375,135.7421875,-65.4296875
7,1746313025210.8438,68.84765625,96.19140625,113.28125,-67.87109375
8,1746313025214.75,76.66015625,96.6796875,93.75,-91.30859375
9,1746313025218.6562,58.10546875,74.21875,58.59375,-149.4140625
10,1746313025222.5625,-25.390625,48.33984375,34.1796875,-111.81640625
11,1746313025226.4688,-55.6640625,16.11328125,19.04296875,29.296875
0,1746313025230.375,-56.640625,-1.953125,10.25390625,126.953125
1,1746313025234.2812,-100.09765625,-49.31640625,-37.109375,122.55859375
2,1746313025238.1875,-128.41796875,-105.95703125,-85.44921875,113.28125
3,1746313025242.0938,-118.65234375,-131.8359375,-107.91015625,122.0703125
4,1746313025246,-81.0546875,-116.2109375,-104.98046875,116.69921875
5,1746313025249.9062,-27.83203125,-63.96484375,-79.58984375,151.3671875
6,1746313025253.8125,-7.32421875,-41.015625,-76.66015625,165.52734375
7,1746313025257.7188,15.625,-17.08984375,-42.48046875,136.71875
8,1746313025261.625,63.4765625,31.73828125,-7.8125,121.09375
9,1746313025265.5312,46.875,8.7890625,-30.2734375,116.2109375
10,1746313025269.4375,-42.48046875,-98.14453125,-94.7265625,26.3671875
11,1746313025273.3438,-107.421875,-169.43359375,-172.8515625,-111.81640625
0,1746313025277.25,-143.06640625,-191.89453125,-222.65625,-183.59375
1,1746313025281.1562,-134.27734375,-182.12890625,-206.0546875,-197.75390625
2,1746313025285.0625,-168.9453125,-214.35546875,-221.6796875,-219.23828125
3,1746313025288.9688,-289.55078125,-284.1796875,-288.57421875,-278.3203125
4,1746313025292.875,-354.98046875,-355.46875,-357.421875,-393.5546875
5,1746313025296.7812,-443.359375,-466.30859375,-451.171875,-505.859375
6,1746313025300.6875,-539.0625,-565.91796875,-551.26953125,-599.609375
7,1746313025304.5938,-563.96484375,-606.4453125,-593.75,-654.78515625
8,1746313025308.5,-572.75390625,-631.8359375,-600.5859375,-674.31640625
9,1746313025312.4062,-571.2890625,-646.484375,-599.609375,-687.01171875
10,1746313025316.3125,-563.4765625,-614.74609375,-562.98828125,-650.390625
11,1746313025320.2188,-513.18359375,-558.10546875,-498.53515625,-602.05078125
0,1746313025324.125,-438.4765625,-520.99609375,-445.3125,-579.1015625
1,1746313025328.0312,-417.96875,-491.2109375,-413.57421875,-534.66796875
2,1746313025331.9375,-390.625,-458.49609375,-359.375,-454.58984375
3,1746313025335.8438,-309.5703125,-434.08203125,-273.92578125,-348.6328125
4,1746313025339.75,-233.3984375,-348.6328125,-162.109375,-250
5,1746313025343.6562,-113.76953125,-227.05078125,-60.05859375,-158.203125
6,1746313025347.5625,0,-144.04296875,7.8125,-61.03515625
7,1746313025351.4688,51.7578125,-77.63671875,69.82421875,14.6484375
8,1746313025355.375,67.3828125,-47.8515625,99.12109375,39.0625
9,1746313025359.2812,91.796875,-29.296875,116.2109375,68.359375
10,1746313025363.1875,93.75,-4.39453125,137.20703125,115.72265625
11,1746313025367.0938,107.91015625,28.80859375,161.62109375,139.6484375
0,1746313025371,175.29296875,64.453125,189.453125,146.484375
1,1746313025374.9062,140.625,75.1953125,197.75390625,163.57421875
2,1746313025378.8125,116.2109375,92.7734375,204.58984375,172.36328125
3,1746313025382.7188,149.90234375,99.609375,207.03125,180.6640625
4,1746313025386.625,168.45703125,84.9609375,193.84765625,171.875
5,1746313025390.5312,147.94921875,76.66015625,181.640625,160.15625
6,1746313025394.4375,91.796875,67.3828125,165.0390625,144.04296875
7,1746313025398.3438,81.0546875,56.15234375,152.34375,122.55859375
8,1746313025402.25,120.1171875,67.3828125,154.296875,121.58203125
9,1746313025406.1562,131.34765625,93.26171875,159.66796875,138.671875
10,1746313025410.0625,81.54296875,82.51953125,141.11328125,124.51171875
11,1746313025413.9688,45.8984375,48.828125,103.02734375,66.40625
0,1746313025417.875,23.92578125,29.78515625,95.21484375,69.82421875
1,1746313025421.7812,31.25,37.59765625,98.14453125,89.35546875
2,1746313025425.6875,50.78125,49.8046875,98.14453125,70.3125
3,1746313025429.5938,23.92578125,44.921875,93.26171875,62.98828125
4,1746313025433.5,26.3671875,45.8984375,90.8203125,51.7578125
5,1746313025437.4062,79.58984375,64.453125,107.421875,65.91796875
6,1746313025441.3125,65.91796875,75.68359375,115.234375,80.56640625
7,1746313025445.2188,20.99609375,61.5234375,99.609375,36.1328125
8,1746313025449.125,20.99609375,47.8515625,77.1484375,23.92578125
9,1746313025453.0312,41.9921875,53.7109375,77.63671875,55.17578125
10,1746313025456.9375,34.1796875,54.6875,77.63671875,42.48046875
11,1746313025460.8438,12.20703125,38.0859375,62.01171875,9.765625
0,1746313025464.75,23.92578125,11.23046875,43.9453125,-4.39453125
1,1746313025468.6562,-50.29296875,-0.9765625,34.1796875,2.44140625
2,1746313025472.5625,-112.3046875,-10.7421875,25.87890625,13.18359375
3,1746313025476.4688,-61.5234375,-17.578125,-7.8125,-23.4375
4,1746313025480.375,-57.12890625,-17.08984375,-23.92578125,-39.0625
5,1746313025484.2812,-58.59375,-19.53125,-15.13671875,-17.08984375
6,1746313025488.1875,-60.05859375,-30.2734375,-17.578125,-31.25
7,1746313025492.0938,-62.98828125,-45.41015625,-17.578125,-59.5703125
8,1746313025496,-55.6640625,-53.7109375,-15.625,-47.8515625
9,1746313025499.9062,-79.1015625,-46.875,-13.671875,-43.45703125
10,1746313025503.8125,-63.4765625,-42.48046875,-14.16015625,-53.22265625
11,1746313025507.7188,-60.05859375,-54.6875,-13.671875,-63.4765625
0,1746313025511.625,-75.68359375,-60.05859375,-13.671875,-90.33203125
1,1746313025515.5312,-68.359375,-54.6875,-6.34765625,-46.38671875
2,1746313025519.4375,-61.03515625,-47.36328125,-0.9765625,-34.66796875
3,1746313025523.3438,-34.1796875,-49.8046875,-8.30078125,-67.3828125
4,1746313025527.25,-75.68359375,-62.01171875,-14.16015625,-56.640625
5,1746313025531.1562,-88.8671875,-69.82421875,-19.53125,-78.61328125
6,1746313025535.0625,-81.0546875,-66.40625,-28.80859375,-92.28515625
7,1746313025538.9688,-94.7265625,-70.3125,-51.7578125,-83.984375
8,1746313025542.875,-81.0546875,-72.265625,-65.91796875,-71.2890625
9,1746313025546.7812,-71.77734375,-65.4296875,-51.26953125,-58.10546875
10,1746313025550.6875,-46.875,-61.5234375,-32.71484375,-55.17578125
11,1746313025554.5938,-45.41015625,-50.29296875,-20.01953125,-55.17578125
0,1746313025558.5,-62.98828125,-51.26953125,-12.20703125,-63.96484375
1,1746313025562.4062,-34.66796875,-54.19921875,-10.7421875,-48.33984375
2,1746313025566.3125,-66.40625,-57.12890625,-3.41796875,-44.921875
3,1746313025570.2188,-95.21484375,-61.5234375,7.32421875,-54.19921875
4,1746313025574.125,-68.84765625,-55.6640625,9.27734375,-50.78125
5,1746313025578.0312,-76.66015625,-56.640625,-2.9296875,-66.89453125
6,1746313025581.9375,-40.52734375,-32.71484375,18.06640625,-52.24609375
7,1746313025585.8438,0,0,53.22265625,-3.41796875
8,1746313025589.75,20.5078125,13.18359375,65.4296875,2.9296875
9,1746313025593.6562,15.625,17.08984375,66.40625,-2.9296875
10,1746313025597.5625,-28.80859375,0.9765625,48.828125,-24.90234375
11,1746313025601.4688,-49.8046875,-16.6015625,37.109375,-23.92578125
0,1746313025605.375,-35.15625,-21.97265625,30.2734375,-23.4375
1,1746313025609.2812,-27.34375,-20.99609375,30.76171875,-35.15625
2,1746313025613.1875,-29.296875,-23.4375,33.69140625,-22.4609375
3,1746313025617.0938,-20.5078125,-16.6015625,36.1328125,-25.87890625
4,1746313025621,-14.6484375,-0.9765625,46.38671875,-25.390625
5,1746313025624.9062,-14.6484375,10.25390625,54.6875,-12.20703125
6,1746313025628.8125,4.8828125,18.06640625,65.91796875,7.8125
7,1746313025632.7188,25.390625,22.94921875,74.21875,22.4609375
8,1746313025636.625,24.4140625,32.71484375,84.9609375,38.0859375
9,1746313025640.5312,25.390625,29.296875,81.54296875,20.01953125
10,1746313025644.4375,4.8828125,18.06640625,69.3359375,7.32421875
11,1746313025648.3438,-11.71875,3.90625,62.01171875,16.6015625
0,1746313025652.25,-20.99609375,-16.6015625,49.31640625,5.37109375
1,1746313025656.1562,-31.73828125,-23.4375,46.875,-5.37109375
2,1746313025660.0625,-23.4375,-16.11328125,52.24609375,-5.37109375
3,1746313025663.9688,-24.90234375,-11.23046875,48.828125,-0.9765625
4,1746313025667.875,-24.90234375,-14.6484375,41.015625,0
5,1746313025671.7812,7.32421875,-5.859375,40.0390625,-4.39453125
6,1746313025675.6875,-7.32421875,-3.90625,30.2734375,-14.6484375
7,1746313025679.5938,-58.59375,-16.11328125,13.671875,-28.3203125
8,1746313025683.5,-1.953125,-26.85546875,10.25390625,-37.59765625
9,1746313025687.4062,-21.484375,-37.59765625,13.671875,-36.1328125
10,1746313025691.3125,-96.6796875,-43.45703125,11.71875,-39.55078125
11,1746313025695.2188,-77.1484375,-44.43359375,0.48828125,-57.12890625
0,1746313025699.125,-69.3359375,-47.36328125,-2.44140625,-66.40625
1,1746313025703.0312,-72.75390625,-48.828125,-7.32421875,-56.640625
2,1746313025706.9375,-77.1484375,-51.26953125,-19.04296875,-61.5234375
3,1746313025710.8438,-89.35546875,-57.12890625,-26.85546875,-79.1015625
4,1746313025714.75,-93.75,-67.87109375,-23.92578125,-78.61328125
5,1746313025718.6562,-69.82421875,-58.10546875,-10.7421875,-71.2890625
6,1746313025722.5625,-87.890625,-36.62109375,5.859375,-46.875
7,1746313025726.4688,-77.63671875,-27.34375,13.18359375,-42.48046875
8,1746313025730.375,-84.47265625,-25.390625,11.23046875,-40.52734375
9,1746313025734.2812,-121.09375,-30.2734375,3.90625,-48.33984375
10,1746313025738.1875,-88.37890625,-35.15625,-2.9296875,-54.6875
11,1746313025742.0938,-95.703125,-41.50390625,-12.20703125,-40.52734375
0,1746313025746,-137.20703125,-43.45703125,-19.53125,-61.03515625
1,1746313025749.9062,-118.1640625,-48.33984375,-20.99609375,-75.1953125
2,1746313025753.8125,-91.30859375,-59.5703125,-24.90234375,-82.03125
3,1746313025757.7188,-120.60546875,-62.5,-28.3203125,-92.7734375
4,1746313025761.625,-134.765625,-65.4296875,-35.15625,-91.796875
5,1746313025765.5312,-117.1875,-73.2421875,-42.96875,-88.37890625
6,1746313025769.4375,-127.44140625,-74.70703125,-45.41015625,-86.9140625
7,1746313025773.3438,-126.46484375,-77.1484375,-50.78125,-87.890625
8,1746313025777.25,-117.67578125,-82.51953125,-56.15234375,-97.65625
9,1746313025781.1562,-141.6015625,-84.47265625,-60.05859375,-99.609375
10,1746313025785.0625,-145.5078125,-84.9609375,-64.453125,-82.51953125
11,1746313025788.9688,-108.3984375,-83.0078125,-68.359375,-87.40234375
0,1746313025792.875,-67.87109375,-82.03125,-67.3828125,-102.5390625
1,1746313025796.7812,-153.3203125,-91.30859375,-63.4765625,-112.3046875
2,1746313025800.6875,-166.015625,-89.84375,-65.4296875,-113.28125
3,1746313025804.5938,-117.1875,-80.078125,-65.4296875,-107.91015625
4,1746313025808.5,-115.72265625,-80.56640625,-62.5,-108.3984375
5,1746313025812.4062,-93.26171875,-82.51953125,-55.17578125,-100.09765625
6,1746313025816.3125,-97.16796875,-80.56640625,-49.31640625,-82.03125
7,1746313025820.2188,-89.84375,-77.1484375,-48.828125,-83.49609375
8,1746313025824.125,-93.75,-79.1015625,-48.33984375,-93.75
9,1746313025828.0312,-104.00390625,-80.56640625,-53.7109375,-83.984375
10,1746313025831.9375,-102.05078125,-79.58984375,-49.8046875,-82.51953125
11,1746313025835.8438,-85.44921875,-67.3828125,-40.52734375,-84.47265625
0,1746313025839.75,-57.6171875,-52.734375,-29.78515625,-75.1953125
1,1746313025843.6562,-72.75390625,-52.734375,-24.4140625,-80.56640625
2,1746313025847.5625,-102.05078125,-54.19921875,-25.87890625,-82.03125
3,1746313025851.4688,-95.21484375,-56.15234375,-22.94921875,-59.08203125
4,1746313025855.375,-68.359375,-50.78125,-22.4609375,-62.98828125
5,1746313025859.2812,-77.1484375,-44.43359375,-21.484375,-77.1484375
6,1746313025863.1875,-53.7109375,-47.36328125,-24.4140625,-62.98828125
7,1746313025867.0938,-35.15625,-53.7109375,-32.71484375,-62.01171875
8,1746313025871,-98.14453125,-53.22265625,-31.73828125,-64.94140625
9,1746313025874.9062,-75.68359375,-54.19921875,-33.203125,-77.1484375
10,1746313025878.8125,-69.3359375,-50.29296875,-33.203125,-76.171875
11,1746313025882.7188,-103.515625,-55.17578125,-32.71484375,-55.17578125
0,1746313025886.625,-93.26171875,-66.40625,-37.109375,-50.78125
1,1746313025890.5312,-87.40234375,-63.96484375,-48.33984375,-75.1953125
2,1746313025894.4375,-88.8671875,-60.05859375,-55.6640625,-95.21484375
3,1746313025898.3438,-95.21484375,-62.5,-47.36328125,-92.28515625
4,1746313025902.25,-108.3984375,-63.96484375,-41.50390625,-79.58984375
5,1746313025906.1562,-74.21875,-59.08203125,-41.015625,-80.078125
6,1746313025910.0625,-77.63671875,-56.15234375,-34.66796875,-86.42578125
7,1746313025913.9688,-85.44921875,-59.08203125,-29.296875,-63.96484375
8,1746313025917.875,-58.10546875,-54.19921875,-27.83203125,-66.40625
9,1746313025921.7812,-13.18359375,-46.38671875,-29.296875,-86.9140625
10,1746313025925.6875,-33.203125,-56.15234375,-39.55078125,-88.37890625
11,1746313025929.5938,-114.74609375,-70.80078125,-46.38671875,-82.51953125
0,1746313025933.5,-94.7265625,-70.80078125,-49.8046875,-88.37890625
1,1746313025937.4062,-73.73046875,-65.91796875,-52.24609375,-90.33203125
2,1746313025941.3125,-66.40625,-70.3125,-55.17578125,-97.65625
3,1746313025945.2188,-71.77734375,-75.68359375,-54.6875,-110.3515625
4,1746313025949.125,-103.515625,-79.1015625,-52.734375,-85.44921875
5,1746313025953.0312,-106.93359375,-78.125,-51.7578125,-88.8671875
6,1746313025956.9375,-52.24609375,-73.73046875,-53.22265625,-106.93359375
7,1746313025960.8438,-71.77734375,-80.078125,-61.03515625,-107.91015625
8,1746313025964.75,-130.859375,-83.49609375,-58.59375,-102.05078125
9,1746313025968.6562,-80.56640625,-75.1953125,-49.31640625,-76.171875
10,1746313025972.5625,-64.94140625,-69.82421875,-47.36328125,-78.61328125
11,1746313025976.4688,-86.42578125,-74.21875,-51.26953125,-113.28125
0,1746313025980.375,-98.6328125,-78.125,-56.640625,-102.5390625
1,1746313025984.2812,-95.703125,-82.03125,-57.6171875,-85.9375
2,1746313025988.1875,-89.35546875,-77.63671875,-58.10546875,-88.8671875
3,1746313025992.0938,-98.6328125,-80.078125,-56.15234375,-98.14453125
4,1746313025996,-103.02734375,-89.84375,-56.15234375,-108.88671875
5,1746313025999.9062,-90.33203125,-79.58984375,-58.10546875,-85.9375
6,1746313026003.8125,-95.21484375,-67.87109375,-56.640625,-107.421875
7,1746313026007.7188,-84.47265625,-72.265625,-59.08203125,-104.98046875
8,1746313026011.625,-136.23046875,-77.63671875,-60.05859375,-76.66015625
9,1746313026015.5312,-227.05078125,-75.68359375,-54.6875,-93.26171875
10,1746313026019.4375,-182.6171875,-76.66015625,-50.29296875,-101.07421875
11,1746313026023.3438,-182.6171875,-85.9375,-51.7578125,-96.19140625
0,1746313026027.25,-228.515625,-93.26171875,-52.24609375,-95.21484375
1,1746313026031.1562,-194.3359375,-101.07421875,-46.875,-94.7265625
2,1746313026035.0625,-151.85546875,-98.6328125,-53.22265625,-85.9375
3,1746313026038.9688,-133.30078125,-72.75390625,-64.453125,-103.515625
4,1746313026042.875,-120.60546875,-63.4765625,-66.89453125,-124.0234375
5,1746313026046.7812,-90.33203125,-71.77734375,-66.89453125,-117.1875
6,1746313026050.6875,-93.75,-79.58984375,-61.5234375,-118.1640625
7,1746313026054.5938,-128.41796875,-89.84375,-62.01171875,-118.65234375
8,1746313026058.5,-139.16015625,-95.21484375,-58.59375,-86.42578125
9,1746313026062.4062,-117.67578125,-92.7734375,-57.6171875,-93.26171875
10,1746313026066.3125,-120.1171875,-90.33203125,-56.640625,-116.69921875
11,1746313026070.2188,-114.74609375,-103.02734375,-57.6171875,-110.3515625
0,1746313026074.125,-92.7734375,-114.2578125,-64.453125,-110.83984375
1,1746313026078.0312,-120.1171875,-104.4921875,-64.453125,-113.28125
2,1746313026081.9375,-126.953125,-84.47265625,-64.453125,-98.14453125
3,1746313026085.8438,-113.76953125,-80.56640625,-65.4296875,-100.09765625
4,1746313026089.75,-125.48828125,-78.125,-64.94140625,-108.88671875
5,1746313026093.6562,-127.44140625,-63.4765625,-66.89453125,-109.86328125
6,1746313026097.5625,-61.03515625,-76.171875,-66.40625,-108.88671875
7,1746313026101.4688,-77.1484375,-97.16796875,-68.84765625,-100.09765625
8,1746313026105.375,-143.06640625,-104.4921875,-72.75390625,-95.703125
9,1746313026109.2812,-123.046875,-94.23828125,-70.3125,-107.421875
10,1746313026113.1875,-133.7890625,-78.61328125,-65.91796875,-125.48828125
11,1746313026117.0938,-138.18359375,-77.1484375,-58.59375,-119.140625
0,1746313026121,-116.69921875,-81.54296875,-55.17578125,-88.37890625
1,1746313026124.9062,-156.25,-84.9609375,-50.78125,-83.0078125
2,1746313026128.8125,-177.734375,-70.80078125,-63.96484375,-84.47265625
3,1746313026132.7188,-146.97265625,-75.68359375,-72.75390625,-73.2421875
4,1746313026136.625,-128.41796875,-77.1484375,-62.01171875,-83.984375
5,1746313026140.5312,-146.484375,-57.6171875,-55.6640625,-101.07421875
6,1746313026144.4375,-130.37109375,-64.94140625,-51.26953125,-125
7,1746313026148.3438,-130.859375,-88.37890625,-51.7578125,-85.9375
8,1746313026152.25,-125.48828125,-95.703125,-50.78125,-67.87109375
9,1746313026156.1562,-99.12109375,-89.35546875,-43.45703125,-83.49609375
10,1746313026160.0625,-133.7890625,-74.70703125,-37.109375,-71.77734375
11,1746313026163.9688,-135.25390625,-54.19921875,-35.15625,-67.3828125
0,1746313026167.875,-95.21484375,-27.83203125,-35.15625,-80.078125
1,1746313026171.7812,-97.65625,-2.44140625,-35.64453125,-82.03125
2,1746313026175.6875,-97.16796875,14.16015625,-29.78515625,-75.1953125
3,1746313026179.5938,-74.70703125,0,-26.85546875,-77.63671875
4,1746313026183.5,-86.9140625,-39.0625,-27.34375,-43.9453125
5,1746313026187.4062,-74.21875,-85.9375,-17.08984375,-24.90234375
6,1746313026191.3125,-80.078125,-89.35546875,-2.9296875,-33.203125
7,1746313026195.2188,-113.76953125,-38.57421875,-2.44140625,-48.828125
8,1746313026199.125,-111.81640625,10.7421875,-19.53125,-70.80078125
9,1746313026203.0312,-102.5390625,20.99609375,-20.99609375,-75.68359375
10,1746313026206.9375,-101.07421875,-32.2265625,-14.6484375,-67.3828125
11,1746313026210.8438,-89.84375,-58.10546875,-12.6953125,-80.078125
0,1746313026214.75,-41.015625,-19.04296875,-14.16015625,-104.98046875
1,1746313026218.6562,-64.453125,-14.6484375,-29.78515625,-83.49609375
2,1746313026222.5625,-139.16015625,-75.1953125,-26.85546875,-94.23828125
3,1746313026226.4688,-193.84765625,-88.37890625,-16.6015625,-129.39453125
4,1746313026230.375,-234.375,-49.31640625,-21.484375,-120.1171875
5,1746313026234.2812,-306.15234375,-39.55078125,-26.85546875,-145.01953125
6,1746313026238.1875,-310.05859375,-43.9453125,-33.69140625,-148.92578125
7,1746313026242.0938,-275.390625,-50.29296875,-57.12890625,-128.90625
8,1746313026246,-312.01171875,-41.50390625,-67.87109375,-118.65234375
9,1746313026249.9062,-321.2890625,-60.546875,-37.59765625,-132.32421875
10,1746313026253.8125,-265.13671875,-66.40625,-38.0859375,-122.0703125
11,1746313026257.7188,-219.23828125,-88.37890625,-39.55078125,-103.515625
0,1746313026261.625,-151.85546875,-87.890625,-25.390625,-132.8125
1,1746313026265.5312,-37.59765625,-67.3828125,-33.203125,-121.58203125
2,1746313026269.4375,20.01953125,-84.47265625,-41.9921875,-94.7265625
3,1746313026273.3438,-20.01953125,-54.6875,-42.48046875,-113.76953125
4,1746313026277.25,-23.92578125,-41.9921875,-43.9453125,-90.8203125
5,1746313026281.1562,-49.31640625,-68.84765625,-38.57421875,-84.9609375
6,1746313026285.0625,-95.703125,-62.98828125,-33.69140625,-34.66796875
7,1746313026288.9688,-65.4296875,-90.8203125,-24.90234375,1.953125
8,1746313026292.875,-92.28515625,-108.88671875,-12.6953125,-86.42578125
9,1746313026296.7812,-63.96484375,-52.734375,17.578125,-102.5390625
10,1746313026300.6875,20.5078125,-38.0859375,28.3203125,-58.59375
11,1746313026304.5938,-0.9765625,-62.5,12.6953125,-52.24609375
0,1746313026308.5,-8.30078125,-70.80078125,48.33984375,-23.92578125
1,1746313026312.4062,-13.18359375,-54.19921875,53.7109375,-2.44140625
2,1746313026316.3125,28.3203125,35.15625,77.1484375,36.62109375
3,1746313026320.2188,125.9765625,111.328125,145.99609375,109.86328125
4,1746313026324.125,133.7890625,105.95703125,153.3203125,97.65625
5,1746313026328.0312,152.34375,127.9296875,184.5703125,125
6,1746313026331.9375,208.49609375,198.2421875,270.5078125,261.71875
7,1746313026335.8438,206.54296875,284.66796875,333.984375,324.70703125
8,1746313026339.75,214.35546875,357.91015625,368.1640625,330.078125
9,1746313026343.6562,251.953125,366.69921875,361.328125,354.00390625
10,1746313026347.5625,266.11328125,318.359375,345.703125,328.61328125
11,1746313026351.4688,327.63671875,289.55078125,359.86328125,342.28515625
0,1746313026355.375,333.0078125,268.5546875,347.65625,314.453125
1,1746313026359.2812,233.88671875,197.75390625,322.75390625,269.53125
2,1746313026363.1875,250,174.31640625,310.546875,280.76171875
3,1746313026367.0938,245.60546875,262.6953125,296.38671875,252.9296875
4,1746313026371,182.12890625,309.08203125,289.0625,256.34765625
5,1746313026374.9062,142.578125,258.7890625,258.7890625,276.3671875
6,1746313026378.8125,207.03125,240.72265625,241.2109375,277.83203125
7,1746313026382.7188,214.84375,270.01953125,253.90625,288.57421875
8,1746313026386.625,153.80859375,259.27734375,256.8359375,290.52734375
9,1746313026390.5312,139.16015625,211.42578125,251.953125,263.671875
10,1746313026394.4375,130.859375,175.78125,241.2109375,210.9375
11,1746313026398.3438,126.46484375,156.25,226.5625,181.15234375
0,1746313026402.25,55.17578125,143.5546875,184.5703125,171.38671875
1,1746313026406.1562,-11.71875,145.99609375,124.0234375,176.7578125
2,1746313026410.0625,-66.89453125,148.4375,119.140625,171.38671875
3,1746313026413.9688,-55.17578125,156.73828125,140.13671875,141.6015625
4,1746313026417.875,-46.38671875,150.390625,123.53515625,121.58203125
5,1746313026421.7812,-88.37890625,122.55859375,113.28125,102.5390625
6,1746313026425.6875,-89.84375,81.54296875,109.86328125,71.77734375
7,1746313026429.5938,-65.4296875,65.91796875,81.0546875,66.40625
8,1746313026433.5,-22.94921875,66.40625,87.890625,106.4453125
9,1746313026437.4062,3.90625,46.38671875,89.35546875,96.19140625
10,1746313026441.3125,-32.2265625,43.45703125,62.01171875,71.77734375
11,1746313026445.2188,-42.96875,47.8515625,42.48046875,68.359375
0,1746313026449.125,-78.61328125,6.34765625,35.15625,71.2890625
1,1746313026453.0312,-80.078125,3.90625,26.85546875,74.21875
2,1746313026456.9375,-69.3359375,66.40625,36.1328125,59.08203125
3,1746313026460.8438,-119.62890625,72.265625,57.6171875,66.89453125
4,1746313026464.75,-90.33203125,40.0390625,36.62109375,69.82421875
5,1746313026468.6562,-69.82421875,17.578125,35.64453125,16.6015625
6,1746313026472.5625,-71.2890625,27.83203125,44.921875,23.4375
7,1746313026476.4688,-42.48046875,43.9453125,14.16015625,26.85546875
8,1746313026480.375,-24.90234375,12.20703125,-12.6953125,-7.32421875
9,1746313026484.2812,-44.921875,-20.01953125,-0.9765625,34.1796875
10,1746313026488.1875,-94.23828125,-8.7890625,18.5546875,28.3203125
11,1746313026492.0938,-74.70703125,12.20703125,30.2734375,36.62109375
0,1746313026496,-60.546875,7.32421875,46.38671875,37.109375
1,1746313026499.9062,-74.21875,-18.5546875,23.92578125,-33.203125
2,1746313026503.8125,-64.453125,-32.71484375,0,-29.296875
3,1746313026507.7188,-53.7109375,-42.96875,-6.8359375,-8.30078125
4,1746313026511.625,-80.56640625,-62.01171875,-39.0625,-38.0859375
5,1746313026515.5312,-81.0546875,-30.2734375,-47.8515625,-10.25390625
6,1746313026519.4375,-87.890625,12.6953125,-18.06640625,11.71875
7,1746313026523.3438,-136.23046875,-15.625,-22.4609375,-24.90234375
8,1746313026527.25,-112.79296875,-23.92578125,-32.71484375,-29.296875
9,1746313026531.1562,-97.16796875,-36.62109375,-31.25,-28.80859375
10,1746313026535.0625,-170.8984375,-58.59375,-20.5078125,-15.13671875
11,1746313026538.9688,-151.85546875,-39.0625,-13.18359375,-12.20703125
0,1746313026542.875,-101.07421875,-22.4609375,-25.390625,-18.5546875
1,1746313026546.7812,-107.91015625,-45.41015625,-33.203125,-6.8359375
2,1746313026550.6875,-109.375,-70.80078125,-32.2265625,-1.953125
3,1746313026554.5938,-72.75390625,-69.3359375,-35.15625,-13.18359375
4,1746313026558.5,-83.984375,-50.78125,-36.1328125,-69.3359375
5,1746313026562.4062,-127.44140625,-24.90234375,-18.06640625,-49.8046875
6,1746313026566.3125,-105.46875,-23.92578125,-21.484375,5.37109375
7,1746313026570.2188,-97.16796875,-30.2734375,-25.390625,-67.87109375
8,1746313026574.125,-116.69921875,-50.29296875,-20.5078125,-116.2109375
9,1746313026578.0312,-79.58984375,-60.05859375,-25.390625,-66.89453125
10,1746313026581.9375,-100.09765625,-78.125,-22.94921875,-36.62109375
11,1746313026585.8438,-147.94921875,-111.81640625,-30.2734375,-40.52734375
0,1746313026589.75,-174.31640625,-113.76953125,-20.99609375,-18.5546875
1,1746313026593.6562,-180.17578125,-70.80078125,-23.4375,-41.50390625
2,1746313026597.5625,-159.1796875,-45.8984375,-43.45703125,-72.75390625
3,1746313026601.4688,-142.08984375,-53.7109375,-45.41015625,-49.8046875
4,1746313026605.375,-109.86328125,-72.75390625,-40.52734375,-38.0859375
5,1746313026609.2812,-120.60546875,-78.125,-32.71484375,-56.15234375
6,1746313026613.1875,-106.4453125,-72.75390625,-29.296875,-74.70703125
7,1746313026617.0938,-105.95703125,-97.16796875,-37.59765625,-48.33984375
8,1746313026621,-95.21484375,-89.35546875,-40.0390625,-3.41796875
9,1746313026624.9062,-23.4375,-58.59375,-45.41015625,-19.53125
10,1746313026628.8125,-125.48828125,-63.96484375,-46.875,-36.62109375
11,1746313026632.7188,-203.61328125,-78.125,-31.73828125,-32.2265625
0,1746313026636.625,-143.06640625,-94.23828125,-35.15625,-48.33984375
1,1746313026640.5312,-133.7890625,-86.9140625,-39.0625,-44.921875
2,1746313026644.4375,-125.48828125,-71.77734375,-33.69140625,-55.6640625
3,1746313026648.3438,-93.75,-80.078125,-32.71484375,-54.6875
4,1746313026652.25,-80.56640625,-63.4765625,-25.390625,-22.94921875
5,1746313026656.1562,-65.91796875,-58.10546875,-20.99609375,-23.92578125
6,1746313026660.0625,-49.8046875,-77.63671875,-25.390625,-69.82421875
7,1746313026663.9688,-77.1484375,-60.05859375,-31.73828125,-69.82421875
8,1746313026667.875,-58.10546875,-24.90234375,-23.4375,-30.76171875
9,1746313026671.7812,21.97265625,-24.4140625,-19.53125,-46.38671875
10,1746313026675.6875,28.3203125,-40.52734375,-28.3203125,-69.3359375
11,1746313026679.5938,2.44140625,-47.8515625,-32.2265625,-59.08203125
0,1746313026683.5,-27.34375,-62.01171875,-31.73828125,-43.45703125
1,1746313026687.4062,-23.92578125,-57.6171875,-37.59765625,-28.3203125
2,1746313026691.3125,-39.0625,-48.828125,-52.24609375,-31.25
3,1746313026695.2188,-72.75390625,-61.03515625,-37.59765625,-50.29296875
4,1746313026699.125,-45.41015625,-61.03515625,-14.16015625,-48.33984375
5,1746313026703.0312,-33.203125,-41.50390625,-6.8359375,-27.83203125
6,1746313026706.9375,-48.33984375,-44.921875,-8.30078125,-22.94921875
7,1746313026710.8438,-70.3125,-52.734375,-23.4375,-21.484375
8,1746313026714.75,-65.4296875,-38.0859375,-33.69140625,-33.69140625
9,1746313026718.6562,-101.07421875,-60.546875,-31.25,-45.41015625
10,1746313026722.5625,-97.16796875,-82.03125,-20.5078125,-20.01953125
11,1746313026726.4688,-68.84765625,-62.5,-11.71875,-55.6640625
0,1746313026730.375,-66.89453125,-60.546875,-10.7421875,-64.94140625
1,1746313026734.2812,-83.984375,-55.17578125,-19.04296875,-59.5703125
2,1746313026738.1875,-113.76953125,-49.31640625,-25.87890625,-83.984375
3,1746313026742.0938,-124.0234375,-66.89453125,-38.0859375,-33.69140625
4,1746313026746,-139.6484375,-67.3828125,-34.1796875,2.44140625
5,1746313026749.9062,-125.48828125,-54.19921875,-20.5078125,-43.9453125
6,1746313026753.8125,-105.95703125,-51.26953125,-10.7421875,-62.5
7,1746313026757.7188,-103.02734375,-46.875,-10.7421875,-55.17578125
8,1746313026761.625,-89.35546875,-68.84765625,-67.87109375,-54.6875
9,1746313026765.5312,-64.453125,-89.84375,-54.6875,-13.671875
10,1746313026769.4375,-74.70703125,-62.98828125,21.484375,-17.08984375
11,1746313026773.3438,-101.07421875,-34.66796875,18.06640625,-75.68359375
0,1746313026777.25,-130.37109375,-27.83203125,-8.7890625,-86.9140625
1,1746313026781.1562,-143.06640625,-48.828125,-21.484375,-58.10546875
2,1746313026785.0625,-115.234375,-69.82421875,-29.296875,-46.875
3,1746313026788.9688,-102.05078125,-43.45703125,-28.3203125,-55.17578125
4,1746313026792.875,-125.48828125,-38.0859375,-23.4375,-49.31640625
5,1746313026796.7812,-134.27734375,-46.38671875,-21.484375,-52.24609375
6,1746313026800.6875,-126.953125,-34.1796875,-23.92578125,-63.4765625
7,1746313026804.5938,-119.62890625,-44.921875,-27.34375,-80.078125
8,1746313026808.5,-120.60546875,-58.10546875,-17.08984375,-73.73046875
9,1746313026812.4062,-125.9765625,-78.61328125,-21.484375,-62.01171875
10,1746313026816.3125,-122.0703125,-77.1484375,-15.625,-57.6171875
11,1746313026820.2188,-125.9765625,-54.6875,1.46484375,-41.50390625
0,1746313026824.125,-141.11328125,-61.03515625,-18.5546875,-80.56640625
1,1746313026828.0312,-135.25390625,-41.9921875,-37.59765625,-112.3046875
2,1746313026831.9375,-134.27734375,-22.4609375,-35.64453125,-99.12109375
3,1746313026835.8438,-142.578125,-31.25,-24.90234375,-116.69921875
4,1746313026839.75,-127.9296875,-36.62109375,-21.484375,-128.90625
5,1746313026843.6562,-139.6484375,-34.66796875,-23.92578125,-125.9765625
6,1746313026847.5625,-142.578125,-33.203125,-21.97265625,-114.74609375
7,1746313026851.4688,-123.046875,-32.71484375,-31.25,-103.02734375
8,1746313026855.375,-102.05078125,-30.2734375,-38.57421875,-84.47265625
9,1746313026859.2812,-113.76953125,-30.76171875,-24.90234375,-83.0078125
10,1746313026863.1875,-143.06640625,-30.2734375,-10.25390625,-110.3515625
11,1746313026867.0938,-135.7421875,-37.59765625,-12.20703125,-106.4453125
0,1746313026871,-126.953125,-46.875,-20.99609375,-124.51171875
1,1746313026874.9062,-135.25390625,-43.9453125,-17.08984375,-144.04296875
2,1746313026878.8125,-146.484375,-49.31640625,-8.7890625,-133.7890625
3,1746313026882.7188,-151.85546875,-53.22265625,-10.25390625,-123.53515625
4,1746313026886.625,-144.53125,-40.52734375,-12.6953125,-121.09375
5,1746313026890.5312,-143.5546875,-33.69140625,-8.30078125,-143.06640625
6,1746313026894.4375,-163.0859375,-33.203125,-8.7890625,-158.69140625
7,1746313026898.3438,-165.0390625,-40.52734375,-18.06640625,-161.1328125
8,1746313026902.25,-157.2265625,-48.828125,-17.08984375,-170.41015625
9,1746313026906.1562,-176.26953125,-55.6640625,-14.16015625,-189.94140625
10,1746313026910.0625,-179.19921875,-52.734375,-15.625,-203.125
11,1746313026913.9688,-181.15234375,-47.8515625,-18.5546875,-180.17578125
0,1746313026917.875,-197.265625,-55.17578125,-18.5546875,-159.66796875
1,1746313026921.7812,-197.75390625,-50.78125,-22.94921875,-179.6875
2,1746313026925.6875,-199.70703125,-43.9453125,-31.25,-194.82421875
3,1746313026929.5938,-220.703125,-48.33984375,-18.06640625,-195.80078125
4,1746313026933.5,-220.703125,-46.38671875,-2.44140625,-172.36328125
5,1746313026937.4062,-204.58984375,-47.8515625,-10.7421875,-138.18359375
6,1746313026941.3125,-188.4765625,-44.43359375,-20.5078125,-138.18359375
7,1746313026945.2188,-176.7578125,-36.62109375,-28.80859375,-156.73828125
8,1746313026949.125,-185.546875,-45.8984375,-26.85546875,-148.92578125
9,1746313026953.0312,-167.48046875,-46.875,0.9765625,-140.625
10,1746313026956.9375,-146.484375,-48.828125,9.27734375,-127.9296875
11,1746313026960.8438,-144.04296875,-50.78125,-8.7890625,-95.703125
0,1746313026964.75,-133.7890625,-47.36328125,-15.625,-92.28515625
1,1746313026968.6562,-136.71875,-54.19921875,-13.18359375,-87.890625
2,1746313026972.5625,-131.8359375,-60.05859375,-19.04296875,-74.70703125
3,1746313026976.4688,-90.8203125,-57.6171875,-26.85546875,-94.7265625
4,1746313026980.375,-72.75390625,-63.4765625,-29.296875,-97.65625
5,1746313026984.2812,-36.1328125,-63.4765625,-32.2265625,-91.30859375
6,1746313026988.1875,48.33984375,-56.640625,-34.66796875,-85.9375
7,1746313026992.0938,105.46875,-60.546875,-32.2265625,-49.31640625
8,1746313026996,121.09375,-57.6171875,-25.87890625,-29.78515625
9,1746313026999.9062,155.76171875,-49.8046875,-26.3671875,0.48828125
10,1746313027003.8125,207.03125,-49.8046875,-24.90234375,-11.71875
11,1746313027007.7188,226.07421875,-55.6640625,-26.3671875,-38.0859375
0,1746313027011.625,238.28125,-59.5703125,-27.34375,-7.32421875
1,1746313027015.5312,238.76953125,-58.10546875,-24.90234375,21.484375
2,1746313027019.4375,229.00390625,-56.640625,-25.390625,36.1328125
3,1746313027023.3438,224.12109375,-54.6875,-30.2734375,50.78125
4,1746313027027.25,205.56640625,-57.6171875,-35.15625,63.96484375
5,1746313027031.1562,175.78125,-59.08203125,-33.203125,52.24609375
6,1746313027035.0625,204.1015625,-59.08203125,-37.109375,60.05859375
7,1746313027038.9688,225.09765625,-58.59375,-41.50390625,79.1015625
8,1746313027042.875,201.171875,-62.01171875,-45.8984375,76.171875
9,1746313027046.7812,202.1484375,-70.80078125,-60.05859375,57.12890625
10,1746313027050.6875,183.10546875,-74.70703125,-70.3125,52.24609375
11,1746313027054.5938,160.64453125,-73.73046875,-64.94140625,39.0625
0,1746313027058.5,138.18359375,-75.1953125,-69.3359375,19.53125
1,1746313027062.4062,127.44140625,-76.66015625,-78.125,31.73828125
2,1746313027066.3125,118.65234375,-76.66015625,-79.1015625,28.80859375
3,1746313027070.2188,91.30859375,-80.078125,-81.54296875,16.11328125
4,1746313027074.125,85.44921875,-86.9140625,-82.03125,33.69140625
5,1746313027078.0312,85.9375,-84.47265625,-80.078125,32.71484375
6,1746313027081.9375,68.84765625,-74.21875,-79.1015625,10.7421875
7,1746313027085.8438,48.828125,-68.359375,-76.66015625,1.953125
8,1746313027089.75,34.66796875,-65.91796875,-70.80078125,5.37109375
9,1746313027093.6562,31.73828125,-65.91796875,-71.2890625,16.11328125
10,1746313027097.5625,25.87890625,-62.01171875,-74.21875,9.27734375
11,1746313027101.4688,22.4609375,-54.6875,-73.2421875,-37.109375
0,1746313027105.375,10.25390625,-58.10546875,-75.68359375,-62.5
1,1746313027109.2812,-24.4140625,-60.546875,-73.2421875,-58.59375
2,1746313027113.1875,-39.0625,-58.59375,-69.3359375,-58.10546875
3,1746313027117.0938,-37.109375,-56.640625,-62.01171875,-49.8046875
4,1746313027121,-47.36328125,-52.734375,-59.5703125,-29.78515625
5,1746313027124.9062,-43.9453125,-51.7578125,-63.96484375,-25.390625
6,1746313027128.8125,-16.6015625,-49.8046875,-55.17578125,-51.7578125
7,1746313027132.7188,-32.2265625,-51.7578125,-48.33984375,-54.6875
8,1746313027136.625,-47.8515625,-55.6640625,-47.36328125,-36.62109375
9,1746313027140.5312,-27.34375,-55.6640625,-46.38671875,-53.7109375
10,1746313027144.4375,-30.2734375,-51.7578125,-46.875,-73.73046875
11,1746313027148.3438,-41.9921875,-47.8515625,-48.828125,-68.359375
0,1746313027152.25,-46.875,-62.01171875,-47.36328125,-95.21484375
1,1746313027156.1562,-41.9921875,-71.77734375,-45.41015625,-90.8203125
2,1746313027160.0625,-30.76171875,-70.3125,-43.9453125,-77.1484375
3,1746313027163.9688,-37.59765625,-71.2890625,-44.921875,-75.68359375
4,1746313027167.875,-37.59765625,-66.40625,-46.875,-50.29296875
5,1746313027171.7812,-21.97265625,-71.77734375,-50.29296875,-53.22265625
6,1746313027175.6875,-44.921875,-78.125,-51.26953125,-74.70703125
7,1746313027179.5938,-68.359375,-76.171875,-42.96875,-88.37890625
8,1746313027183.5,3.41796875,-73.2421875,-43.45703125,-77.1484375
9,1746313027187.4062,19.04296875,-73.2421875,-48.828125,-47.8515625
10,1746313027191.3125,-68.84765625,-73.2421875,-41.50390625,-89.84375
11,1746313027195.2188,-54.6875,-68.359375,-38.57421875,-99.12109375
0,1746313027199.125,-20.99609375,-70.80078125,-42.48046875,-66.89453125
1,1746313027203.0312,-12.20703125,-77.1484375,-42.96875,-74.21875
2,1746313027206.9375,-20.5078125,-75.68359375,-45.8984375,-83.49609375
3,1746313027210.8438,-1.953125,-66.40625,-52.734375,-61.03515625
4,1746313027214.75,33.203125,-52.734375,-43.9453125,-45.8984375
5,1746313027218.6562,38.0859375,-46.38671875,-38.0859375,-57.12890625
6,1746313027222.5625,35.64453125,-45.41015625,-34.66796875,-75.68359375
7,1746313027226.4688,20.01953125,-39.0625,-26.85546875,-78.61328125
8,1746313027230.375,31.25,-32.2265625,-27.83203125,-78.61328125
9,1746313027234.2812,44.43359375,-31.25,-29.296875,-74.21875
10,1746313027238.1875,21.97265625,-36.62109375,-35.64453125,-81.54296875
11,1746313027242.0938,8.7890625,-39.0625,-39.55078125,-92.28515625
0,1746313027246,5.859375,-35.15625,-38.57421875,-88.8671875
1,1746313027249.9062,8.30078125,-29.78515625,-35.15625,-54.6875
2,1746313027253.8125,27.34375,-31.73828125,-39.55078125,-55.6640625
3,1746313027257.7188,32.71484375,-30.2734375,-41.50390625,-91.796875
4,1746313027261.625,4.39453125,-27.83203125,-36.1328125,-71.77734375
5,1746313027265.5312,8.7890625,-30.2734375,-41.015625,-41.50390625
6,1746313027269.4375,12.6953125,-43.9453125,-42.48046875,-55.17578125
7,1746313027273.3438,19.53125,-54.19921875,-40.0390625,-79.58984375
8,1746313027277.25,57.12890625,-46.38671875,-34.66796875,-75.1953125
9,1746313027281.1562,85.44921875,-42.96875,-29.296875,-57.12890625
10,1746313027285.0625,53.7109375,-45.8984375,-30.2734375,-41.9921875
11,1746313027288.9688,10.7421875,-43.9453125,-33.69140625,-48.33984375
0,1746313027292.875,23.4375,-49.31640625,-41.9921875,-56.15234375
1,1746313027296.7812,47.8515625,-54.19921875,-45.41015625,-60.05859375
2,1746313027300.6875,59.5703125,-46.875,-34.66796875,-67.87109375
3,1746313027304.5938,43.9453125,-42.48046875,-30.76171875,-54.6875
4,1746313027308.5,26.3671875,-40.0390625,-37.59765625,-53.22265625
5,1746313027312.4062,6.34765625,-35.15625,-44.43359375,-55.6640625
6,1746313027316.3125,9.765625,-40.0390625,-43.45703125,-54.19921875
7,1746313027320.2188,11.71875,-44.921875,-35.15625,-72.75390625
8,1746313027324.125,11.71875,-36.62109375,-30.2734375,-50.78125
9,1746313027328.0312,8.7890625,-44.921875,-35.64453125,0
10,1746313027331.9375,2.9296875,-66.40625,-35.15625,-29.78515625
11,1746313027335.8438,2.9296875,-66.89453125,-38.57421875,-79.1015625
0,1746313027339.75,-25.390625,-56.640625,-43.9453125,-81.54296875
1,1746313027343.6562,-28.80859375,-62.98828125,-42.48046875,-81.54296875
2,1746313027347.5625,-28.80859375,-67.3828125,-46.38671875,-79.1015625
3,1746313027351.4688,-34.1796875,-64.453125,-43.9453125,-77.1484375
4,1746313027355.375,-2.44140625,-63.96484375,-38.57421875,-68.359375
5,1746313027359.2812,-9.27734375,-62.5,-33.69140625,-71.2890625
6,1746313027363.1875,-58.59375,-62.5,-34.1796875,-70.3125
7,1746313027367.0938,-43.45703125,-61.03515625,-35.15625,-65.4296875
8,1746313027371,-34.66796875,-65.4296875,-37.59765625,-69.82421875
9,1746313027374.9062,-45.8984375,-70.3125,-41.9921875,-56.15234375
10,1746313027378.8125,-37.59765625,-65.91796875,-44.43359375,-62.5
11,1746313027382.7188,-38.0859375,-63.96484375,-42.48046875,-80.56640625
0,1746313027386.625,-58.10546875,-64.94140625,-36.62109375,-68.359375
1,1746313027390.5312,-50.78125,-66.40625,-40.0390625,-67.3828125
2,1746313027394.4375,-63.4765625,-56.15234375,-42.48046875,-72.75390625
3,1746313027398.3438,-81.0546875,-39.0625,-40.0390625,-74.21875
4,1746313027402.25,-51.26953125,-39.55078125,-42.48046875,-60.546875
5,1746313027406.1562,-50.78125,-42.96875,-41.50390625,-65.91796875
6,1746313027410.0625,-62.01171875,-37.109375,-36.1328125,-70.80078125
7,1746313027413.9688,-49.31640625,-32.2265625,-35.15625,-70.80078125
8,1746313027417.875,-41.9921875,-32.71484375,-42.48046875,-74.21875
9,1746313027421.7812,-23.4375,-33.69140625,-45.8984375,-59.5703125
10,1746313027425.6875,-41.015625,-29.296875,-40.52734375,-51.7578125
11,1746313027429.5938,-43.45703125,-26.85546875,-41.9921875,-28.80859375
0,1746313027433.5,-42.96875,-30.2734375,-41.9921875,-33.69140625
1,1746313027437.4062,-41.015625,-28.80859375,-38.57421875,-49.31640625
2,1746313027441.3125,-39.55078125,-23.92578125,-34.1796875,-47.8515625
3,1746313027445.2188,-49.31640625,-27.83203125,-39.0625,-49.31640625
4,1746313027449.125,-44.921875,-35.15625,-49.31640625,-53.22265625
5,1746313027453.0312,-38.0859375,-33.203125,-42.96875,-44.921875
6,1746313027456.9375,-41.9921875,-37.109375,-40.52734375,-46.38671875
7,1746313027460.8438,-48.828125,-37.109375,-41.9921875,-46.38671875
8,1746313027464.75,-29.296875,-30.2734375,-36.1328125,-40.0390625
9,1746313027468.6562,-30.76171875,-28.3203125,-32.2265625,-38.57421875
10,1746313027472.5625,-37.59765625,-26.3671875,-32.71484375,-12.6953125
11,1746313027476.4688,-35.64453125,-26.85546875,-37.59765625,-21.97265625
0,1746313027480.375,-31.25,-29.78515625,-35.15625,-55.17578125
1,1746313027484.2812,-31.73828125,-31.73828125,-33.69140625,-36.1328125
2,1746313027488.1875,-38.0859375,-33.203125,-32.71484375,-51.26953125
3,1746313027492.0938,-44.43359375,-33.69140625,-33.203125,-81.54296875
4,1746313027496,-48.33984375,-35.15625,-33.203125,-64.94140625
5,1746313027499.9062,-41.50390625,-31.73828125,-28.80859375,-48.33984375
6,1746313027503.8125,-31.73828125,-27.83203125,-29.296875,-48.828125
7,1746313027507.7188,-42.96875,-30.2734375,-27.34375,-42.48046875
8,1746313027511.625,-47.36328125,-32.2265625,-29.296875,-30.76171875
9,1746313027515.5312,-26.85546875,-26.85546875,-30.76171875,-29.296875
10,1746313027519.4375,-39.55078125,-21.97265625,-24.4140625,-45.41015625
11,1746313027523.3438,-65.4296875,-25.87890625,-19.04296875,-38.0859375
0,1746313027527.25,-62.5,-28.3203125,-20.5078125,-43.45703125
1,1746313027531.1562,-57.6171875,-29.78515625,-31.25,-44.43359375
2,1746313027535.0625,-60.546875,-31.25,-35.64453125,-42.96875
3,1746313027538.9688,-43.9453125,-25.87890625,-29.296875,-59.08203125
4,1746313027542.875,-65.4296875,-25.390625,-27.83203125,-44.921875
5,1746313027546.7812,-89.84375,-27.83203125,-27.34375,-37.59765625
6,1746313027550.6875,-72.265625,-28.3203125,-32.2265625,-37.59765625
7,1746313027554.5938,-56.640625,-29.296875,-34.66796875,-46.875
8,1746313027558.5,-58.10546875,-32.71484375,-20.99609375,-45.8984375
9,1746313027562.4062,-56.15234375,-34.66796875,-18.06640625,-29.296875
10,1746313027566.3125,-16.6015625,-34.1796875,-21.484375,-38.57421875
11,1746313027570.2188,-29.296875,-56.15234375,-21.97265625,-47.36328125
0,1746313027574.125,-54.6875,-71.2890625,-27.34375,-40.0390625
1,1746313027578.0312,-23.92578125,-53.7109375,-26.3671875,-7.8125
2,1746313027581.9375,-5.37109375,-39.0625,-25.390625,-35.64453125
3,1746313027585.8438,0,-34.1796875,-27.34375,-73.73046875
4,1746313027589.75,-1.46484375,-31.73828125,-25.87890625,-48.828125
5,1746313027593.6562,-2.9296875,-30.76171875,-24.4140625,-47.36328125
6,1746313027597.5625,5.37109375,-30.76171875,-27.83203125,-37.59765625
7,1746313027601.4688,31.25,-27.83203125,-26.85546875,-20.01953125
8,1746313027605.375,34.1796875,-21.484375,-29.296875,-48.33984375
9,1746313027609.2812,19.04296875,-28.80859375,-29.296875,-40.52734375
10,1746313027613.1875,9.765625,-33.203125,-31.73828125,-24.90234375
11,1746313027617.0938,12.20703125,-30.2734375,-41.50390625,-54.6875
0,1746313027621,7.32421875,-30.76171875,-41.50390625,-43.9453125
1,1746313027624.9062,-19.04296875,-25.87890625,-34.1796875,-34.66796875
2,1746313027628.8125,-20.01953125,-29.78515625,-23.4375,-40.52734375
3,1746313027632.7188,-1.953125,-52.24609375,-22.4609375,-29.78515625
4,1746313027636.625,11.71875,-64.94140625,-29.78515625,-32.71484375
5,1746313027640.5312,-10.7421875,-62.5,-22.4609375,-31.73828125
6,1746313027644.4375,-26.85546875,-48.33984375,-18.06640625,-26.85546875
7,1746313027648.3438,-17.08984375,-36.62109375,-23.92578125,-21.97265625
8,1746313027652.25,-9.765625,-36.1328125,-23.4375,-17.578125
9,1746313027656.1562,-1.953125,-30.76171875,-23.4375,-47.36328125
10,1746313027660.0625,-18.06640625,-28.80859375,-27.83203125,-49.8046875
11,1746313027663.9688,-32.2265625,-33.203125,-32.2265625,-41.50390625
0,1746313027667.875,-20.99609375,-29.296875,-36.62109375,-45.41015625
1,1746313027671.7812,11.71875,-21.97265625,-31.25,-22.4609375
2,1746313027675.6875,1.953125,-24.4140625,-27.83203125,-50.78125
3,1746313027679.5938,-49.8046875,-27.83203125,-34.66796875,-68.359375
4,1746313027683.5,-30.76171875,-26.3671875,-39.55078125,-27.83203125
5,1746313027687.4062,-17.08984375,-29.78515625,-41.015625,-15.625
6,1746313027691.3125,-43.45703125,-30.76171875,-42.96875,-28.3203125
7,1746313027695.2188,-29.296875,-25.87890625,-33.203125,-40.52734375
8,1746313027699.125,-17.578125,-27.34375,-20.5078125,-34.1796875
9,1746313027703.0312,-36.62109375,-27.34375,-18.5546875,-44.43359375
10,1746313027706.9375,-33.69140625,-25.87890625,-18.06640625,-49.31640625
11,1746313027710.8438,-27.83203125,-32.71484375,-21.484375,-48.33984375
0,1746313027714.75,-27.83203125,-28.80859375,-30.76171875,-42.48046875
1,1746313027718.6562,-25.87890625,-19.53125,-26.85546875,-31.25
2,1746313027722.5625,-29.78515625,-20.01953125,-28.80859375,-44.921875
3,1746313027726.4688,-50.78125,-28.3203125,-40.0390625,-57.6171875
4,1746313027730.375,-36.1328125,-27.83203125,-36.1328125,-41.50390625
5,1746313027734.2812,-29.78515625,-31.25,-32.71484375,-35.15625
6,1746313027738.1875,-40.52734375,-36.62109375,-29.296875,-35.64453125
7,1746313027742.0938,-57.6171875,-36.62109375,-23.92578125,-31.73828125
8,1746313027746,-64.94140625,-37.59765625,-28.80859375,-48.828125
9,1746313027749.9062,-62.5,-41.50390625,-35.15625,-57.12890625
10,1746313027753.8125,-71.2890625,-37.59765625,-34.66796875,-70.80078125
11,1746313027757.7188,-64.94140625,-35.15625,-40.0390625,-71.2890625
0,1746313027761.625,-59.5703125,-41.015625,-43.45703125,-64.94140625
1,1746313027765.5312,-66.40625,-39.55078125,-40.0390625,-66.89453125
2,1746313027769.4375,-59.5703125,-40.0390625,-40.52734375,-47.8515625
3,1746313027773.3438,-35.15625,-57.6171875,-43.45703125,-42.96875
4,1746313027777.25,-47.36328125,-74.70703125,-47.8515625,-55.6640625
5,1746313027781.1562,-53.7109375,-79.58984375,-41.015625,-55.6640625
6,1746313027785.0625,-35.15625,-76.66015625,-39.55078125,-43.45703125
7,1746313027788.9688,-53.7109375,-75.1953125,-48.33984375,-44.43359375
8,1746313027792.875,-44.43359375,-76.66015625,-43.45703125,-48.33984375
9,1746313027796.7812,-37.59765625,-74.70703125,-40.52734375,-51.7578125
10,1746313027800.6875,-79.58984375,-69.82421875,-40.0390625,-55.17578125
11,1746313027804.5938,-77.63671875,-61.03515625,-34.66796875,-47.36328125
0,1746313027808.5,-62.01171875,-59.5703125,-36.62109375,-30.2734375
1,1746313027812.4062,-45.8984375,-62.01171875,-39.55078125,-33.203125
2,1746313027816.3125,-46.38671875,-64.453125,-41.50390625,-49.31640625
3,1746313027820.2188,-53.7109375,-59.08203125,-41.015625,-65.91796875
4,1746313027824.125,-64.453125,-55.17578125,-40.52734375,-69.82421875
5,1746313027828.0312,-74.21875,-59.5703125,-43.45703125,-52.24609375
6,1746313027831.9375,-63.4765625,-58.59375,-41.50390625,-54.19921875
7,1746313027835.8438,-56.15234375,-58.10546875,-42.96875,-48.828125
8,1746313027839.75,-46.38671875,-52.734375,-44.43359375,-34.66796875
9,1746313027843.6562,-48.828125,-55.17578125,-46.38671875,-44.921875
10,1746313027847.5625,-62.5,-56.640625,-44.921875,-63.96484375
11,1746313027851.4688,-55.6640625,-53.22265625,-41.015625,-63.96484375
0,1746313027855.375,-64.453125,-59.08203125,-41.015625,-66.40625
1,1746313027859.2812,-59.08203125,-62.01171875,-45.41015625,-69.3359375
2,1746313027863.1875,-65.4296875,-59.5703125,-43.9453125,-60.546875
3,1746313027867.0938,-85.9375,-57.6171875,-43.9453125,-51.7578125
4,1746313027871,-77.63671875,-61.5234375,-47.36328125,-54.19921875
5,1746313027874.9062,-82.51953125,-66.89453125,-45.8984375,-72.265625
6,1746313027878.8125,-96.19140625,-66.40625,-45.8984375,-63.96484375
7,1746313027882.7188,-93.75,-60.05859375,-42.48046875,-38.57421875
8,1746313027886.625,-84.47265625,-55.17578125,-35.64453125,-46.38671875
9,1746313027890.5312,-60.546875,-56.640625,-36.62109375,-61.5234375
10,1746313027894.4375,-63.96484375,-57.12890625,-42.96875,-68.84765625
11,1746313027898.3438,-72.75390625,-54.6875,-35.64453125,-68.84765625
0,1746313027902.25,-65.4296875,-52.734375,-33.69140625,-65.91796875
1,1746313027906.1562,-55.6640625,-55.6640625,-45.8984375,-54.19921875
2,1746313027910.0625,-56.15234375,-57.6171875,-48.828125,-62.01171875
3,1746313027913.9688,-95.703125,-55.6640625,-43.45703125,-75.68359375
4,1746313027917.875,-85.9375,-58.10546875,-44.921875,-59.08203125
5,1746313027921.7812,-69.82421875,-58.59375,-42.96875,-43.45703125
6,1746313027925.6875,-83.0078125,-58.10546875,-45.41015625,-52.734375
7,1746313027929.5938,-81.54296875,-59.5703125,-48.33984375,-58.10546875
8,1746313027933.5,-84.9609375,-56.640625,-44.921875,-62.98828125
9,1746313027937.4062,-77.63671875,-52.734375,-47.36328125,-69.3359375
10,1746313027941.3125,-59.08203125,-50.29296875,-48.33984375,-80.078125
11,1746313027945.2188,-76.171875,-55.6640625,-41.9921875,-66.40625
0,1746313027949.125,-81.54296875,-63.96484375,-40.52734375,-33.203125
1,1746313027953.0312,-67.87109375,-62.5,-41.015625,-40.52734375
2,1746313027956.9375,-63.96484375,-60.05859375,-42.48046875,-66.89453125
3,1746313027960.8438,-73.73046875,-57.12890625,-46.875,-68.84765625
4,1746313027964.75,-83.49609375,-52.734375,-43.9453125,-64.453125
5,1746313027968.6562,-49.8046875,-54.19921875,-40.52734375,-32.71484375
6,1746313027972.5625,-69.3359375,-49.8046875,-43.45703125,-38.0859375
7,1746313027976.4688,-100.09765625,-54.6875,-45.41015625,-55.17578125
8,1746313027980.375,-85.44921875,-56.640625,-41.9921875,-53.22265625
9,1746313027984.2812,-61.03515625,-54.6875,-39.0625,-48.33984375
10,1746313027988.1875,-62.98828125,-56.15234375,-40.0390625,-48.828125
11,1746313027992.0938,-74.21875,-54.19921875,-39.55078125,-51.7578125
0,1746313027996,-54.6875,-53.7109375,-40.0390625,-52.734375
1,1746313027999.9062,-58.59375,-54.6875,-43.9453125,-48.828125
2,1746313028003.8125,-62.98828125,-50.29296875,-43.45703125,-34.66796875
3,1746313028007.7188,-57.6171875,-51.7578125,-45.8984375,-36.1328125
4,1746313028011.625,-61.03515625,-51.26953125,-47.36328125,-23.4375
5,1746313028015.5312,-74.21875,-49.8046875,-47.8515625,-1.953125
6,1746313028019.4375,-66.89453125,-52.24609375,-47.36328125,-1.953125
7,1746313028023.3438,-64.94140625,-55.6640625,-50.78125,-33.69140625
8,1746313028027.25,-57.12890625,-55.6640625,-52.24609375,-24.4140625
9,1746313028031.1562,-63.96484375,-55.6640625,-46.875,-24.90234375
