index,unixTimestamp,TP9,AF7,AF8,TP10
0,1746312965277.25,-0.48828125,0,0,-0.48828125
1,1746312965281.1562,-0.48828125,0,0,0
2,1746312965285.0625,0.48828125,-1.46484375,-1.953125,3.90625
3,1746312965288.9688,-1.953125,2.9296875,3.41796875,-10.25390625
4,1746312965292.875,9.27734375,-18.06640625,-19.53125,56.640625
5,1746312965296.7812,27.83203125,-46.38671875,-49.31640625,130.37109375
6,1746312965300.6875,26.85546875,-47.8515625,-42.96875,121.58203125
7,1746312965304.5938,14.6484375,-52.24609375,-39.55078125,122.55859375
8,1746312965308.5,10.25390625,-54.19921875,-40.0390625,101.5625
9,1746312965312.4062,16.11328125,-52.24609375,-40.52734375,90.8203125
10,1746312965316.3125,6.8359375,-49.8046875,-39.55078125,87.40234375
11,1746312965320.2188,11.23046875,-52.734375,-39.0625,93.75
0,1746312965324.125,12.6953125,-62.01171875,-41.9921875,105.95703125
1,1746312965328.0312,3.41796875,-63.4765625,-42.48046875,76.171875
2,1746312965331.9375,2.9296875,-61.03515625,-39.0625,42.96875
3,1746312965335.8438,13.18359375,-62.01171875,-36.1328125,57.12890625
4,1746312965339.75,6.34765625,-65.4296875,-37.59765625,65.91796875
5,1746312965343.6562,-3.41796875,-62.98828125,-41.50390625,70.80078125
6,1746312965347.5625,2.44140625,-59.5703125,-37.109375,56.640625
7,1746312965351.4688,-7.8125,-62.01171875,-35.64453125,33.69140625
8,1746312965355.375,-11.23046875,-58.10546875,-36.62109375,34.66796875
9,1746312965359.2812,-1.46484375,-54.6875,-33.203125,35.15625
10,1746312965363.1875,-2.44140625,-59.5703125,-31.73828125,34.1796875
11,1746312965367.0938,-4.8828125,-54.19921875,-32.2265625,54.6875
0,1746312965371,-7.32421875,-53.22265625,-38.0859375,63.96484375
1,1746312965374.9062,-7.32421875,-56.640625,-42.48046875,34.1796875
2,1746312965378.8125,-9.27734375,-57.6171875,-40.0390625,10.7421875
3,1746312965382.7188,-14.16015625,-60.546875,-31.73828125,5.37109375
4,1746312965386.625,-14.6484375,-53.7109375,-39.0625,14.16015625
5,1746312965390.5312,-16.6015625,-49.31640625,-39.0625,36.62109375
6,1746312965394.4375,-14.16015625,-51.7578125,-18.5546875,27.83203125
7,1746312965398.3438,-19.53125,-47.36328125,-41.50390625,25.390625
8,1746312965402.25,-17.08984375,-47.8515625,-45.41015625,48.33984375
9,1746312965406.1562,-17.08984375,-49.8046875,-14.6484375,44.43359375
10,1746312965410.0625,-20.99609375,-44.921875,-14.16015625,22.4609375
11,1746312965413.9688,-11.71875,-44.921875,-19.53125,19.53125
0,1746312965417.875,-11.71875,-47.36328125,-25.87890625,30.76171875
1,1746312965421.7812,-22.4609375,-50.29296875,-27.34375,16.11328125
2,1746312965425.6875,-30.76171875,-49.31640625,-34.1796875,8.30078125
3,1746312965429.5938,-33.203125,-48.828125,-33.69140625,5.859375
4,1746312965433.5,-36.62109375,-46.38671875,-29.78515625,18.5546875
5,1746312965437.4062,-40.0390625,-44.921875,-41.50390625,0
6,1746312965441.3125,-38.0859375,-46.38671875,-42.96875,-31.25
7,1746312965445.2188,-43.9453125,-43.45703125,-34.66796875,-33.69140625
8,1746312965449.125,-49.31640625,-42.96875,-39.0625,-49.8046875
9,1746312965453.0312,-57.12890625,-39.55078125,-30.76171875,-49.8046875
10,1746312965456.9375,-75.68359375,-40.52734375,-23.92578125,-35.15625
11,1746312965460.8438,-86.9140625,-40.52734375,-28.80859375,-37.59765625
0,1746312965464.75,-75.1953125,-34.66796875,-35.64453125,-53.7109375
1,1746312965468.6562,-74.21875,-35.64453125,-48.828125,-65.91796875
2,1746312965472.5625,-83.49609375,-40.0390625,-30.2734375,-56.640625
3,1746312965476.4688,-96.6796875,-42.96875,-22.4609375,-67.3828125
4,1746312965480.375,-113.28125,-48.33984375,-34.66796875,-102.05078125
5,1746312965484.2812,-109.375,-46.38671875,-7.8125,-99.609375
6,1746312965488.1875,-113.28125,-43.9453125,7.32421875,-90.33203125
7,1746312965492.0938,-119.62890625,-41.9921875,-4.39453125,-104.98046875
8,1746312965496,-122.0703125,-35.15625,-11.71875,-109.375
9,1746312965499.9062,-116.2109375,-32.71484375,-12.6953125,-98.14453125
10,1746312965503.8125,-100.09765625,-35.15625,-15.13671875,-89.35546875
11,1746312965507.7188,-98.14453125,-41.50390625,-20.01953125,-75.68359375
0,1746312965511.625,-104.00390625,-39.55078125,-11.23046875,-80.078125
1,1746312965515.5312,-107.421875,-36.1328125,-12.20703125,-86.9140625
2,1746312965519.4375,-123.046875,-33.203125,-21.484375,-75.68359375
3,1746312965523.3438,-109.86328125,-30.2734375,-24.90234375,-70.80078125
4,1746312965527.25,-87.890625,-38.57421875,-16.6015625,-72.75390625
5,1746312965531.1562,-82.03125,-42.96875,-20.99609375,-82.51953125
6,1746312965535.0625,-75.68359375,-40.0390625,-26.85546875,-85.9375
7,1746312965538.9688,-63.96484375,-36.1328125,-17.08984375,-60.05859375
8,1746312965542.875,-50.78125,-38.57421875,-20.99609375,-42.48046875
9,1746312965546.7812,-46.38671875,-44.43359375,-36.1328125,-25.87890625
10,1746312965550.6875,-33.69140625,-43.45703125,-34.66796875,-19.53125
11,1746312965554.5938,-41.015625,-36.62109375,-27.34375,-27.83203125
0,1746312965558.5,-48.33984375,-36.62109375,-39.0625,-15.13671875
1,1746312965562.4062,-28.80859375,-40.0390625,-41.015625,-17.08984375
2,1746312965566.3125,-13.671875,-41.9921875,-32.71484375,-6.8359375
3,1746312965570.2188,0,-43.9453125,-32.2265625,0.9765625
4,1746312965574.125,13.18359375,-40.0390625,-32.2265625,1.953125
5,1746312965578.0312,10.25390625,-39.0625,-32.2265625,12.20703125
6,1746312965581.9375,2.9296875,-41.50390625,-35.15625,20.5078125
7,1746312965585.8438,19.53125,-42.48046875,-38.0859375,42.48046875
8,1746312965589.75,27.83203125,-47.8515625,-39.0625,41.015625
9,1746312965593.6562,20.99609375,-48.828125,-40.0390625,23.92578125
10,1746312965597.5625,16.6015625,-52.734375,-47.36328125,30.76171875
11,1746312965601.4688,16.11328125,-54.19921875,-40.52734375,35.15625
0,1746312965605.375,28.3203125,-52.24609375,-26.85546875,28.80859375
1,1746312965609.2812,22.4609375,-52.24609375,-23.92578125,29.296875
2,1746312965613.1875,14.16015625,-52.24609375,-31.73828125,22.4609375
3,1746312965617.0938,23.92578125,-57.6171875,-43.45703125,18.5546875
4,1746312965621,26.85546875,-55.17578125,-40.52734375,21.484375
5,1746312965624.9062,10.25390625,-52.24609375,-42.96875,8.7890625
6,1746312965628.8125,3.90625,-54.6875,-47.8515625,18.06640625
7,1746312965632.7188,11.71875,-52.24609375,-35.64453125,21.484375
8,1746312965636.625,11.23046875,-52.734375,-36.1328125,6.8359375
9,1746312965640.5312,-6.34765625,-55.6640625,-35.15625,6.34765625
10,1746312965644.4375,-11.71875,-57.6171875,-32.2265625,1.953125
11,1746312965648.3438,-9.765625,-56.15234375,-32.2265625,-7.8125
0,1746312965652.25,2.44140625,-53.22265625,-36.62109375,-0.9765625
1,1746312965656.1562,14.6484375,-49.8046875,-39.0625,35.15625
2,1746312965660.0625,-1.46484375,-48.828125,-33.69140625,8.7890625
3,1746312965663.9688,-11.71875,-56.15234375,-38.0859375,-40.52734375
4,1746312965667.875,-10.7421875,-60.05859375,-37.59765625,-9.27734375
5,1746312965671.7812,-2.9296875,-61.03515625,-32.71484375,0.9765625
6,1746312965675.6875,-5.37109375,-58.59375,-40.0390625,-11.71875
7,1746312965679.5938,-18.5546875,-59.08203125,-51.26953125,-25.390625
8,1746312965683.5,-12.6953125,-67.3828125,-49.31640625,-28.80859375
9,1746312965687.4062,-4.8828125,-67.3828125,-40.0390625,-5.37109375
10,1746312965691.3125,-24.4140625,-56.15234375,-39.0625,2.44140625
11,1746312965695.2188,-28.80859375,-53.7109375,-47.36328125,-26.3671875
0,1746312965699.125,-30.2734375,-52.734375,-45.8984375,-44.43359375
1,1746312965703.0312,-24.90234375,-47.8515625,-30.76171875,-35.15625
2,1746312965706.9375,-16.6015625,-50.78125,-28.3203125,-25.87890625
3,1746312965710.8438,-22.94921875,-52.24609375,-31.73828125,-28.3203125
4,1746312965714.75,-21.484375,-45.8984375,-36.62109375,-20.99609375
5,1746312965718.6562,-16.11328125,-46.38671875,-38.0859375,-4.39453125
6,1746312965722.5625,-7.32421875,-45.41015625,-39.0625,-12.20703125
7,1746312965726.4688,-16.11328125,-42.48046875,-44.43359375,-23.4375
8,1746312965730.375,-30.2734375,-44.43359375,-37.59765625,-20.5078125
9,1746312965734.2812,-23.92578125,-44.921875,-30.76171875,-15.13671875
10,1746312965738.1875,-14.6484375,-43.45703125,-27.83203125,-12.20703125
11,1746312965742.0938,-13.671875,-43.9453125,-33.69140625,1.46484375
0,1746312965746,-30.76171875,-44.43359375,-42.48046875,-24.4140625
1,1746312965749.9062,-43.9453125,-41.9921875,-37.59765625,-45.8984375
2,1746312965753.8125,-28.80859375,-44.43359375,-33.69140625,-18.5546875
3,1746312965757.7188,-19.53125,-47.36328125,-37.109375,-13.18359375
4,1746312965761.625,-28.3203125,-43.9453125,-44.43359375,-24.4140625
5,1746312965765.5312,-35.64453125,-43.9453125,-43.45703125,-26.3671875
6,1746312965769.4375,-32.2265625,-47.8515625,-38.0859375,-19.53125
7,1746312965773.3438,-28.80859375,-51.26953125,-37.59765625,-17.08984375
8,1746312965777.25,-29.296875,-61.5234375,-30.76171875,-16.6015625
9,1746312965781.1562,-29.296875,-76.171875,-33.69140625,-22.94921875
10,1746312965785.0625,-29.78515625,-80.56640625,-37.109375,-20.99609375
11,1746312965788.9688,-25.87890625,-86.42578125,-35.64453125,-12.6953125
0,1746312965792.875,-24.90234375,-86.42578125,-41.015625,-23.4375
1,1746312965796.7812,-36.1328125,-77.63671875,-42.48046875,-56.15234375
2,1746312965800.6875,-27.83203125,-62.5,-37.59765625,-42.48046875
3,1746312965804.5938,-15.625,-44.921875,-37.109375,-12.6953125
4,1746312965808.5,-28.3203125,-38.57421875,-36.62109375,-19.04296875
5,1746312965812.4062,-44.43359375,-33.203125,-32.2265625,-38.57421875
6,1746312965816.3125,-36.62109375,-28.3203125,-31.25,-33.203125
7,1746312965820.2188,-33.203125,-24.90234375,-30.2734375,-20.01953125
8,1746312965824.125,-40.0390625,-17.08984375,-28.80859375,-20.99609375
9,1746312965828.0312,-36.62109375,-13.18359375,-29.296875,-28.80859375
10,1746312965831.9375,-38.57421875,-9.27734375,-31.73828125,-23.92578125
11,1746312965835.8438,-29.296875,-1.46484375,-34.1796875,-9.27734375
0,1746312965839.75,-20.5078125,-2.9296875,-29.296875,3.90625
1,1746312965843.6562,-23.4375,-3.90625,-26.85546875,-13.18359375
2,1746312965847.5625,-40.52734375,1.953125,-39.0625,-39.55078125
3,1746312965851.4688,-38.57421875,-1.46484375,-40.52734375,-16.11328125
4,1746312965855.375,-21.97265625,-6.8359375,-27.34375,-110.83984375
5,1746312965859.2812,-20.5078125,-2.44140625,-22.94921875,-254.39453125
6,1746312965863.1875,-23.92578125,-4.8828125,-39.55078125,-304.19921875
7,1746312965867.0938,-23.92578125,-10.25390625,-43.9453125,-312.5
8,1746312965871,-19.04296875,-10.7421875,-20.01953125,-291.9921875
9,1746312965874.9062,-20.99609375,-16.11328125,-13.671875,-296.875
10,1746312965878.8125,-32.71484375,-19.04296875,-23.92578125,-293.45703125
11,1746312965882.7188,-34.66796875,-22.94921875,-29.78515625,-259.27734375
0,1746312965886.625,-30.76171875,-20.5078125,-37.59765625,-247.55859375
1,1746312965890.5312,-26.3671875,-18.06640625,-41.015625,-247.55859375
2,1746312965894.4375,-22.4609375,-19.04296875,-34.66796875,-231.4453125
3,1746312965898.3438,-26.85546875,-16.11328125,-30.2734375,-212.40234375
4,1746312965902.25,-28.3203125,-17.08984375,-38.0859375,-191.40625
5,1746312965906.1562,-27.34375,-19.53125,-39.55078125,-165.52734375
6,1746312965910.0625,-30.2734375,-24.90234375,-37.109375,-135.7421875
7,1746312965913.9688,-38.0859375,-31.73828125,-34.66796875,-130.859375
8,1746312965917.875,-35.64453125,-29.78515625,-33.69140625,-142.578125
9,1746312965921.7812,-24.90234375,-23.4375,-34.66796875,-94.23828125
10,1746312965925.6875,-16.6015625,-24.90234375,-28.3203125,-66.40625
11,1746312965929.5938,-24.4140625,-34.66796875,-28.3203125,-73.73046875
0,1746312965933.5,-31.25,-35.15625,-27.83203125,-65.91796875
1,1746312965937.4062,-23.4375,-23.4375,-30.76171875,-37.109375
2,1746312965941.3125,-24.4140625,-16.6015625,-31.25,1.46484375
3,1746312965945.2188,-27.83203125,-19.04296875,-24.4140625,6.8359375
4,1746312965949.125,-27.34375,-26.3671875,-26.85546875,15.625
5,1746312965953.0312,-23.4375,-27.83203125,-29.296875,37.109375
6,1746312965956.9375,-28.3203125,-30.2734375,-28.3203125,32.71484375
7,1746312965960.8438,-32.2265625,-30.76171875,-27.34375,11.71875
8,1746312965964.75,-29.296875,-23.92578125,-27.34375,-9.27734375
9,1746312965968.6562,-19.53125,-25.87890625,-28.3203125,-2.44140625
10,1746312965972.5625,-19.04296875,-30.76171875,-28.3203125,5.859375
11,1746312965976.4688,-36.1328125,-39.0625,-27.83203125,-6.34765625
0,1746312965980.375,-40.52734375,-40.52734375,-27.83203125,-28.3203125
1,1746312965984.2812,-32.71484375,-39.55078125,-19.53125,-34.1796875
2,1746312965988.1875,-32.71484375,-37.109375,-16.6015625,-18.5546875
3,1746312965992.0938,-34.66796875,-32.71484375,-25.87890625,-31.25
4,1746312965996,-41.50390625,-31.25,-32.2265625,-41.9921875
5,1746312965999.9062,-45.41015625,-32.71484375,-28.80859375,-36.1328125
6,1746312966003.8125,-49.31640625,-34.66796875,-26.3671875,-25.87890625
7,1746312966007.7188,-45.8984375,-36.1328125,-31.73828125,-18.5546875
8,1746312966011.625,-44.921875,-39.55078125,-39.55078125,-14.6484375
9,1746312966015.5312,-59.5703125,-38.57421875,-39.55078125,-33.69140625
10,1746312966019.4375,-38.0859375,-30.76171875,-36.1328125,-21.484375
11,1746312966023.3438,-18.06640625,-31.73828125,-36.62109375,-3.41796875
0,1746312966027.25,-29.78515625,-33.203125,-35.64453125,-23.4375
1,1746312966031.1562,-40.52734375,-33.203125,-40.52734375,-40.0390625
2,1746312966035.0625,-33.69140625,-39.55078125,-41.9921875,-32.71484375
3,1746312966038.9688,-22.4609375,-43.9453125,-36.1328125,-24.4140625
4,1746312966042.875,-31.25,-37.109375,-40.0390625,-40.52734375
5,1746312966046.7812,-39.0625,-35.15625,-38.57421875,-42.48046875
6,1746312966050.6875,-31.73828125,-36.62109375,-25.390625,-16.6015625
7,1746312966054.5938,-33.69140625,-44.43359375,-24.4140625,2.44140625
8,1746312966058.5,-25.390625,-41.9921875,-25.390625,-17.578125
9,1746312966062.4062,-16.6015625,-36.1328125,-29.78515625,-58.10546875
10,1746312966066.3125,-38.57421875,-44.43359375,-34.1796875,-66.89453125
11,1746312966070.2188,-33.69140625,-41.015625,-37.59765625,-56.15234375
0,1746312966074.125,-20.01953125,-48.828125,-35.15625,-45.41015625
1,1746312966078.0312,-33.203125,-52.734375,-31.25,-48.33984375
2,1746312966081.9375,-28.80859375,-41.015625,-36.1328125,-46.875
3,1746312966085.8438,-21.484375,-38.0859375,-41.50390625,-48.33984375
4,1746312966089.75,-24.90234375,-38.57421875,-43.45703125,-39.55078125
5,1746312966093.6562,-35.15625,-41.9921875,-34.1796875,-39.0625
6,1746312966097.5625,-48.828125,-48.33984375,-30.2734375,-50.29296875
7,1746312966101.4688,-47.8515625,-39.55078125,-21.97265625,-26.85546875
8,1746312966105.375,-40.52734375,-38.0859375,-28.3203125,-22.94921875
9,1746312966109.2812,-35.15625,-52.24609375,-38.57421875,-53.7109375
10,1746312966113.1875,-46.38671875,-52.24609375,-27.83203125,-61.5234375
11,1746312966117.0938,-47.8515625,-49.8046875,-22.94921875,-50.29296875
0,1746312966121,-29.78515625,-41.50390625,-26.85546875,-41.9921875
1,1746312966124.9062,-27.34375,-34.66796875,-32.71484375,-40.0390625
2,1746312966128.8125,-43.9453125,-37.109375,-32.2265625,-37.59765625
3,1746312966132.7188,-51.26953125,-42.96875,-29.296875,-32.2265625
4,1746312966136.625,-47.36328125,-39.55078125,-30.76171875,-37.109375
5,1746312966140.5312,-35.64453125,-38.57421875,-30.2734375,-47.36328125
6,1746312966144.4375,-20.5078125,-41.9921875,-25.390625,-55.17578125
7,1746312966148.3438,-27.83203125,-37.59765625,-23.4375,-57.6171875
8,1746312966152.25,-18.06640625,-38.57421875,-22.94921875,-37.109375
9,1746312966156.1562,-6.34765625,-40.0390625,-26.3671875,-24.4140625
10,1746312966160.0625,-24.90234375,-37.59765625,-31.73828125,-43.45703125
11,1746312966163.9688,-40.0390625,-36.1328125,-32.71484375,-41.015625
0,1746312966167.875,-29.296875,-34.1796875,-28.80859375,-20.01953125
1,1746312966171.7812,-18.06640625,-36.62109375,-27.34375,-41.9921875
2,1746312966175.6875,-23.4375,-38.0859375,-34.1796875,-49.8046875
3,1746312966179.5938,-27.83203125,-41.50390625,-31.25,-41.9921875
4,1746312966183.5,-32.71484375,-45.8984375,-28.3203125,-40.0390625
5,1746312966187.4062,-27.83203125,-40.52734375,-30.76171875,-20.01953125
6,1746312966191.3125,-27.34375,-42.48046875,-42.96875,-34.66796875
7,1746312966195.2188,-42.96875,-46.875,-58.59375,-54.19921875
8,1746312966199.125,-49.8046875,-47.36328125,-50.78125,-62.5
9,1746312966203.0312,-40.0390625,-50.78125,-33.203125,-51.26953125
10,1746312966206.9375,-25.390625,-45.8984375,-29.296875,-52.24609375
11,1746312966210.8438,-47.8515625,-44.43359375,-33.203125,-66.89453125
0,1746312966214.75,-54.6875,-56.640625,-39.0625,-49.31640625
1,1746312966218.6562,-38.57421875,-61.03515625,-43.45703125,-46.38671875
2,1746312966222.5625,-38.57421875,-46.38671875,-36.1328125,-55.6640625
3,1746312966226.4688,-46.38671875,-33.69140625,-34.66796875,-71.77734375
4,1746312966230.375,-42.96875,-41.015625,-38.57421875,-87.40234375
5,1746312966234.2812,-37.59765625,-39.55078125,-31.25,-72.265625
6,1746312966238.1875,-38.0859375,-33.203125,-31.73828125,-41.50390625
7,1746312966242.0938,-32.71484375,-35.64453125,-33.203125,-46.875
8,1746312966246,-30.2734375,-34.1796875,-32.2265625,-61.03515625
9,1746312966249.9062,-29.296875,-34.66796875,-34.66796875,-50.29296875
10,1746312966253.8125,-31.25,-44.43359375,-32.2265625,-47.36328125
11,1746312966257.7188,-35.15625,-52.734375,-37.59765625,-77.63671875
0,1746312966261.625,-41.9921875,-47.36328125,-38.57421875,-76.66015625
1,1746312966265.5312,-50.29296875,-40.52734375,-34.1796875,-49.8046875
2,1746312966269.4375,-44.43359375,-43.45703125,-34.1796875,-46.38671875
3,1746312966273.3438,-27.34375,-41.50390625,-38.57421875,-38.57421875
4,1746312966277.25,-18.5546875,-33.69140625,-43.45703125,-36.62109375
5,1746312966281.1562,-34.66796875,-32.71484375,-43.9453125,-67.3828125
6,1746312966285.0625,-41.9921875,-33.69140625,-37.59765625,-61.5234375
7,1746312966288.9688,-30.2734375,-27.34375,-24.4140625,-42.48046875
8,1746312966292.875,-28.3203125,-36.1328125,-31.73828125,-39.55078125
9,1746312966296.7812,-31.73828125,-49.8046875,-41.015625,-41.50390625
10,1746312966300.6875,-36.62109375,-46.38671875,-33.69140625,-49.8046875
11,1746312966304.5938,-25.87890625,-42.96875,-25.87890625,-44.921875
0,1746312966308.5,-31.73828125,-42.48046875,-17.08984375,-41.015625
1,1746312966312.4062,-47.8515625,-40.52734375,-24.4140625,-53.7109375
2,1746312966316.3125,-40.52734375,-31.25,-32.2265625,-57.12890625
3,1746312966320.2188,-30.2734375,-27.83203125,-28.80859375,-22.94921875
4,1746312966324.125,-31.25,-35.64453125,-28.3203125,-25.390625
5,1746312966328.0312,-44.921875,-40.0390625,-33.69140625,-63.4765625
6,1746312966331.9375,-40.52734375,-39.0625,-29.296875,-50.29296875
7,1746312966335.8438,-22.94921875,-29.78515625,-29.296875,-44.921875
8,1746312966339.75,-37.109375,-30.2734375,-35.64453125,-53.7109375
9,1746312966343.6562,-36.62109375,-33.69140625,-34.1796875,-47.36328125
10,1746312966347.5625,-36.62109375,-24.4140625,-34.1796875,-42.48046875
11,1746312966351.4688,-38.0859375,-26.3671875,-41.9921875,-45.8984375
0,1746312966355.375,-28.80859375,-33.203125,-31.25,-41.015625
1,1746312966359.2812,-41.015625,-40.52734375,-27.83203125,-46.38671875
2,1746312966363.1875,-45.41015625,-42.48046875,-33.69140625,-54.6875
3,1746312966367.0938,-33.69140625,-33.69140625,-33.203125,-26.85546875
4,1746312966371,-30.76171875,-32.2265625,-42.48046875,-37.109375
5,1746312966374.9062,-29.296875,-27.83203125,-36.1328125,-46.875
6,1746312966378.8125,-21.484375,-31.73828125,-27.34375,-37.109375
7,1746312966382.7188,-32.71484375,-36.1328125,-35.64453125,-83.984375
8,1746312966386.625,-46.875,-35.15625,-34.66796875,-74.70703125
9,1746312966390.5312,-44.921875,-38.0859375,-26.3671875,-38.0859375
10,1746312966394.4375,-42.96875,-41.50390625,-29.296875,-57.6171875
11,1746312966398.3438,-43.45703125,-43.45703125,-33.203125,-57.6171875
0,1746312966402.25,-43.9453125,-41.015625,-32.2265625,-26.85546875
1,1746312966406.1562,-31.25,-38.57421875,-35.64453125,-36.1328125
2,1746312966410.0625,-27.83203125,-36.1328125,-40.52734375,-37.59765625
3,1746312966413.9688,-47.36328125,-38.57421875,-35.15625,-41.9921875
4,1746312966417.875,-39.55078125,-41.015625,-25.390625,-54.6875
5,1746312966421.7812,-22.4609375,-36.1328125,-32.2265625,-46.38671875
6,1746312966425.6875,-24.4140625,-32.71484375,-34.1796875,-43.9453125
7,1746312966429.5938,-35.15625,-37.109375,-32.71484375,-32.2265625
8,1746312966433.5,-34.1796875,-41.9921875,-34.66796875,-23.92578125
9,1746312966437.4062,-32.71484375,-31.25,-24.90234375,-36.62109375
10,1746312966441.3125,-36.1328125,-20.99609375,-24.90234375,-37.109375
11,1746312966445.2188,-50.78125,-20.99609375,-30.76171875,-36.1328125
0,1746312966449.125,-52.734375,-27.34375,-30.2734375,-29.78515625
1,1746312966453.0312,-33.203125,-33.203125,-31.73828125,-22.94921875
2,1746312966456.9375,-31.25,-33.69140625,-34.1796875,-17.08984375
3,1746312966460.8438,-38.57421875,-34.66796875,-33.203125,-28.80859375
4,1746312966464.75,-29.78515625,-38.0859375,-26.3671875,-40.0390625
5,1746312966468.6562,-31.25,-39.55078125,-27.83203125,-24.90234375
6,1746312966472.5625,-27.34375,-33.203125,-29.296875,-22.4609375
7,1746312966476.4688,-26.85546875,-37.59765625,-23.4375,-37.59765625
8,1746312966480.375,-37.59765625,-46.38671875,-23.92578125,-60.546875
9,1746312966484.2812,-39.55078125,-42.48046875,-31.25,-58.10546875
10,1746312966488.1875,-34.66796875,-41.9921875,-29.78515625,-13.671875
11,1746312966492.0938,-30.2734375,-40.52734375,-29.78515625,-22.94921875
0,1746312966496,-29.296875,-41.015625,-34.1796875,-48.828125
1,1746312966499.9062,-39.0625,-42.48046875,-34.66796875,-46.38671875
2,1746312966503.8125,-41.9921875,-38.0859375,-34.1796875,-37.109375
3,1746312966507.7188,-32.71484375,-37.109375,-34.1796875,-20.5078125
4,1746312966511.625,-30.76171875,-36.1328125,-36.62109375,-37.59765625
5,1746312966515.5312,-31.73828125,-35.15625,-39.55078125,-49.8046875
6,1746312966519.4375,-41.50390625,-39.55078125,-31.25,-18.06640625
7,1746312966523.3438,-51.7578125,-43.9453125,-32.2265625,-18.5546875
8,1746312966527.25,-34.1796875,-48.828125,-43.9453125,-41.50390625
9,1746312966531.1562,-38.57421875,-45.8984375,-42.96875,-53.22265625
10,1746312966535.0625,-39.0625,-41.015625,-36.1328125,-45.8984375
11,1746312966538.9688,-30.76171875,-33.203125,-36.1328125,-39.0625
0,1746312966542.875,-43.9453125,-27.34375,-33.203125,-42.96875
1,1746312966546.7812,-36.62109375,-31.25,-34.66796875,-45.8984375
2,1746312966550.6875,-36.1328125,-32.71484375,-31.25,-32.71484375
3,1746312966554.5938,-38.0859375,-44.921875,-27.83203125,-28.3203125
4,1746312966558.5,-29.78515625,-44.43359375,-31.73828125,-49.8046875
5,1746312966562.4062,-35.15625,-31.25,-39.55078125,-46.875
6,1746312966566.3125,-30.2734375,-31.73828125,-39.55078125,-39.0625
7,1746312966570.2188,-22.94921875,-35.15625,-33.69140625,-31.25
8,1746312966574.125,-41.50390625,-33.69140625,-34.66796875,-39.55078125
9,1746312966578.0312,-44.921875,-31.25,-27.83203125,-59.5703125
10,1746312966581.9375,-35.15625,-31.25,-31.73828125,-37.59765625
11,1746312966585.8438,-29.296875,-36.1328125,-30.76171875,-13.18359375
0,1746312966589.75,-22.4609375,-35.15625,-33.203125,-40.52734375
1,1746312966593.6562,-36.1328125,-27.34375,-40.0390625,-55.17578125
2,1746312966597.5625,-41.9921875,-29.296875,-30.2734375,-58.59375
3,1746312966601.4688,-27.83203125,-32.2265625,-39.0625,-56.640625
4,1746312966605.375,-19.53125,-28.80859375,-45.41015625,-41.9921875
5,1746312966609.2812,-29.78515625,-34.1796875,-23.92578125,-43.9453125
6,1746312966613.1875,-36.62109375,-33.69140625,-18.06640625,-48.828125
7,1746312966617.0938,-31.25,-22.4609375,-25.390625,-41.9921875
8,1746312966621,-17.578125,-23.92578125,-27.83203125,-19.53125
9,1746312966624.9062,-23.4375,-34.1796875,-23.4375,-18.06640625
10,1746312966628.8125,-46.875,-31.73828125,-22.94921875,-44.43359375
11,1746312966632.7188,-41.9921875,-26.85546875,-26.85546875,-42.48046875
0,1746312966636.625,-19.53125,-27.83203125,-28.3203125,-45.8984375
1,1746312966640.5312,-25.87890625,-33.69140625,-25.87890625,-52.24609375
2,1746312966644.4375,-56.640625,-36.62109375,-27.34375,-38.0859375
3,1746312966648.3438,-41.9921875,-35.15625,-34.66796875,-37.109375
4,1746312966652.25,-21.484375,-35.64453125,-30.76171875,-46.38671875
5,1746312966656.1562,-21.97265625,-30.76171875,-29.78515625,-39.55078125
6,1746312966660.0625,-25.390625,-27.34375,-32.2265625,-20.5078125
7,1746312966663.9688,-38.0859375,-29.296875,-27.34375,-38.0859375
8,1746312966667.875,-42.96875,-34.1796875,-22.94921875,-43.45703125
9,1746312966671.7812,-37.109375,-36.62109375,-30.76171875,-33.69140625
10,1746312966675.6875,-26.3671875,-35.64453125,-39.0625,-54.19921875
11,1746312966679.5938,-36.1328125,-37.109375,-34.1796875,-38.0859375
0,1746312966683.5,-49.31640625,-41.015625,-23.4375,-25.87890625
1,1746312966687.4062,-29.296875,-42.96875,-27.83203125,-48.33984375
2,1746312966691.3125,-27.83203125,-39.0625,-35.15625,-50.78125
3,1746312966695.2188,-41.50390625,-39.0625,-30.2734375,-56.640625
4,1746312966699.125,-39.0625,-42.48046875,-30.76171875,-55.17578125
5,1746312966703.0312,-24.90234375,-41.015625,-30.76171875,-28.3203125
6,1746312966706.9375,-45.41015625,-45.8984375,-33.203125,-32.2265625
7,1746312966710.8438,-42.96875,-40.0390625,-41.50390625,-63.96484375
8,1746312966714.75,-21.97265625,-28.80859375,-36.62109375,-45.41015625
9,1746312966718.6562,-40.0390625,-30.76171875,-25.390625,-26.85546875
10,1746312966722.5625,-35.15625,-28.3203125,-35.15625,-37.109375
11,1746312966726.4688,-34.1796875,-33.69140625,-43.45703125,-26.3671875
0,1746312966730.375,-48.828125,-39.55078125,-31.73828125,-26.85546875
1,1746312966734.2812,-44.921875,-38.57421875,-28.3203125,-42.96875
2,1746312966738.1875,-34.66796875,-36.62109375,-36.62109375,-23.92578125
3,1746312966742.0938,-36.1328125,-35.64453125,-34.1796875,-31.73828125
4,1746312966746,-48.828125,-36.62109375,-33.69140625,-57.12890625
5,1746312966749.9062,-29.78515625,-34.66796875,-36.62109375,-50.78125
6,1746312966753.8125,-22.94921875,-32.2265625,-33.69140625,-44.921875
7,1746312966757.7188,-29.296875,-33.203125,-35.15625,-38.57421875
8,1746312966761.625,-31.25,-31.25,-34.1796875,-44.921875
9,1746312966765.5312,-32.2265625,-33.69140625,-33.203125,-50.29296875
10,1746312966769.4375,-21.484375,-33.203125,-32.2265625,-41.015625
11,1746312966773.3438,-16.6015625,-27.83203125,-33.203125,-38.57421875
0,1746312966777.25,-25.390625,-28.80859375,-30.2734375,-43.9453125
1,1746312966781.1562,-39.55078125,-32.2265625,-29.78515625,-41.9921875
2,1746312966785.0625,-35.15625,-35.15625,-36.62109375,-21.97265625
3,1746312966788.9688,-22.94921875,-35.15625,-32.2265625,-17.578125
4,1746312966792.875,-22.4609375,-31.73828125,-29.78515625,-42.96875
5,1746312966796.7812,-28.80859375,-33.203125,-38.57421875,-53.7109375
6,1746312966800.6875,-29.296875,-34.66796875,-37.109375,-33.203125
7,1746312966804.5938,-22.4609375,-34.1796875,-31.73828125,-37.109375
8,1746312966808.5,-28.80859375,-30.2734375,-33.203125,-43.9453125
9,1746312966812.4062,-42.48046875,-29.78515625,-27.83203125,-42.48046875
10,1746312966816.3125,-29.78515625,-37.59765625,-23.4375,-46.38671875
11,1746312966820.2188,-20.99609375,-37.109375,-34.66796875,-36.1328125
0,1746312966824.125,-23.4375,-28.3203125,-38.0859375,-24.4140625
1,1746312966828.0312,-29.78515625,-27.83203125,-26.85546875,-38.0859375
2,1746312966831.9375,-32.2265625,-30.2734375,-26.3671875,-37.59765625
3,1746312966835.8438,-20.99609375,-37.59765625,-22.4609375,-31.73828125
4,1746312966839.75,-25.87890625,-45.8984375,-20.99609375,-39.55078125
5,1746312966843.6562,-42.96875,-36.1328125,-32.71484375,-27.83203125
6,1746312966847.5625,-40.52734375,-28.80859375,-32.2265625,-23.4375
7,1746312966851.4688,-29.296875,-29.78515625,-20.01953125,-34.66796875
8,1746312966855.375,-30.76171875,-31.73828125,-22.4609375,-48.828125
9,1746312966859.2812,-43.45703125,-39.55078125,-27.83203125,-44.921875
10,1746312966863.1875,-54.6875,-38.0859375,-29.78515625,-50.29296875
11,1746312966867.0938,-49.31640625,-37.59765625,-30.76171875,-49.8046875
0,1746312966871,-30.2734375,-35.64453125,-29.78515625,-25.87890625
1,1746312966874.9062,-29.78515625,-30.76171875,-30.2734375,-35.15625
2,1746312966878.8125,-37.59765625,-35.64453125,-31.25,-43.45703125
3,1746312966882.7188,-39.0625,-36.62109375,-34.66796875,-28.80859375
4,1746312966886.625,-29.78515625,-39.0625,-37.109375,-17.578125
5,1746312966890.5312,-29.78515625,-39.55078125,-38.57421875,-12.20703125
6,1746312966894.4375,-50.78125,-38.57421875,-35.15625,-38.57421875
7,1746312966898.3438,-40.0390625,-39.0625,-33.203125,-55.17578125
8,1746312966902.25,-22.4609375,-32.71484375,-28.3203125,-35.15625
9,1746312966906.1562,-25.87890625,-29.78515625,-26.3671875,-23.92578125
10,1746312966910.0625,-31.25,-31.73828125,-36.1328125,-34.66796875
11,1746312966913.9688,-33.203125,-34.66796875,-34.66796875,-45.41015625
0,1746312966917.875,-34.1796875,-41.015625,-27.34375,-17.578125
1,1746312966921.7812,-34.1796875,-40.0390625,-31.25,4.39453125
2,1746312966925.6875,-41.015625,-33.203125,-37.59765625,-37.59765625
3,1746312966929.5938,-50.29296875,-39.0625,-41.50390625,-63.4765625
4,1746312966933.5,-36.1328125,-37.59765625,-39.55078125,-43.45703125
5,1746312966937.4062,-21.97265625,-37.59765625,-31.73828125,-32.71484375
6,1746312966941.3125,-36.1328125,-41.9921875,-32.71484375,-34.66796875
7,1746312966945.2188,-44.921875,-35.15625,-34.66796875,-31.73828125
8,1746312966949.125,-47.8515625,-32.71484375,-30.2734375,-31.73828125
9,1746312966953.0312,-51.7578125,-36.62109375,-29.296875,-30.76171875
10,1746312966956.9375,-41.50390625,-34.1796875,-29.296875,-18.5546875
11,1746312966960.8438,-41.015625,-36.62109375,-32.71484375,-28.3203125
0,1746312966964.75,-58.10546875,-39.0625,-30.76171875,-42.96875
1,1746312966968.6562,-50.78125,-32.71484375,-28.80859375,-46.38671875
2,1746312966972.5625,-38.0859375,-31.73828125,-32.2265625,-35.64453125
3,1746312966976.4688,-37.109375,-35.64453125,-35.64453125,-28.80859375
4,1746312966980.375,-38.57421875,-36.1328125,-36.62109375,-41.9921875
5,1746312966984.2812,-43.9453125,-36.62109375,-35.15625,-42.48046875
6,1746312966988.1875,-37.59765625,-34.1796875,-37.109375,-29.296875
7,1746312966992.0938,-33.69140625,-34.66796875,-37.59765625,-36.1328125
8,1746312966996,-33.69140625,-30.76171875,-34.66796875,-35.15625
9,1746312966999.9062,-30.76171875,-27.34375,-29.78515625,-7.32421875
10,1746312967003.8125,-30.2734375,-31.73828125,-34.66796875,-8.30078125
11,1746312967007.7188,-23.4375,-33.69140625,-41.015625,-43.45703125
0,1746312967011.625,-32.2265625,-35.64453125,-35.15625,-58.59375
1,1746312967015.5312,-51.7578125,-36.1328125,-25.87890625,-45.8984375
2,1746312967019.4375,-46.875,-34.66796875,-29.296875,-34.1796875
3,1746312967023.3438,-35.64453125,-36.1328125,-36.1328125,-18.5546875
4,1746312967027.25,-34.66796875,-41.015625,-33.69140625,-26.85546875
5,1746312967031.1562,-38.57421875,-34.66796875,-29.78515625,-50.29296875
6,1746312967035.0625,-37.109375,-25.390625,-26.85546875,-40.52734375
7,1746312967038.9688,-34.66796875,-30.2734375,-26.3671875,-27.34375
8,1746312967042.875,-30.76171875,-28.80859375,-27.34375,-25.390625
9,1746312967046.7812,-39.0625,-25.87890625,-30.76171875,-33.203125
10,1746312967050.6875,-37.109375,-29.78515625,-32.71484375,-31.73828125
11,1746312967054.5938,-30.2734375,-29.296875,-34.1796875,-17.08984375
0,1746312967058.5,-35.15625,-30.76171875,-33.69140625,-16.6015625
1,1746312967062.4062,-35.64453125,-33.69140625,-34.1796875,-14.6484375
2,1746312967066.3125,-36.1328125,-36.1328125,-35.64453125,-3.90625
3,1746312967070.2188,-28.80859375,-40.52734375,-35.15625,2.44140625
4,1746312967074.125,-21.97265625,-41.015625,-35.64453125,5.859375
5,1746312967078.0312,-35.15625,-31.73828125,-34.66796875,-11.71875
6,1746312967081.9375,-38.0859375,-28.80859375,-33.203125,-30.76171875
7,1746312967085.8438,-32.71484375,-33.203125,-31.73828125,-24.4140625
8,1746312967089.75,-35.15625,-32.2265625,-27.83203125,-16.11328125
9,1746312967093.6562,-25.87890625,-26.85546875,-27.34375,-24.4140625
10,1746312967097.5625,-28.3203125,-28.3203125,-34.1796875,-38.0859375
11,1746312967101.4688,-30.76171875,-29.296875,-34.66796875,-30.2734375
0,1746312967105.375,-23.92578125,-23.4375,-29.78515625,-15.13671875
1,1746312967109.2812,-27.34375,-23.92578125,-31.73828125,-15.625
2,1746312967113.1875,-33.69140625,-24.4140625,-37.59765625,-26.85546875
3,1746312967117.0938,-35.64453125,-20.01953125,-45.8984375,-37.109375
4,1746312967121,-23.4375,-8.30078125,-33.203125,-28.80859375
5,1746312967124.9062,-21.97265625,1.46484375,-29.296875,-21.484375
6,1746312967128.8125,-33.69140625,0.48828125,-37.109375,-25.390625
7,1746312967132.7188,-39.0625,-0.9765625,-35.15625,-43.45703125
8,1746312967136.625,-37.59765625,4.39453125,-32.71484375,-41.9921875
9,1746312967140.5312,-28.80859375,10.7421875,-33.203125,-26.3671875
10,1746312967144.4375,-37.109375,8.30078125,-38.0859375,-22.94921875
11,1746312967148.3438,-43.45703125,9.765625,-37.109375,-26.85546875
0,1746312967152.25,-30.2734375,8.7890625,-31.73828125,-29.78515625
1,1746312967156.1562,-30.76171875,1.953125,-28.80859375,-25.390625
2,1746312967160.0625,-34.66796875,-2.9296875,-31.73828125,-34.66796875
3,1746312967163.9688,-37.59765625,-7.8125,-33.69140625,-42.48046875
4,1746312967167.875,-35.64453125,-11.23046875,-32.2265625,-33.203125
5,1746312967171.7812,-28.80859375,-11.23046875,-33.203125,-25.87890625
6,1746312967175.6875,-33.69140625,-14.16015625,-36.62109375,-25.87890625
7,1746312967179.5938,-31.73828125,-16.11328125,-35.64453125,-30.76171875
8,1746312967183.5,-27.83203125,-13.671875,-31.73828125,-19.04296875
9,1746312967187.4062,-29.78515625,-15.625,-31.25,-5.859375
10,1746312967191.3125,-39.55078125,-20.01953125,-33.69140625,-12.20703125
11,1746312967195.2188,-45.8984375,-22.94921875,-32.2265625,-13.671875
0,1746312967199.125,-40.0390625,-22.4609375,-29.78515625,-4.8828125
1,1746312967203.0312,-36.1328125,-20.01953125,-30.76171875,5.859375
2,1746312967206.9375,-36.62109375,-22.4609375,-37.59765625,-5.859375
3,1746312967210.8438,-35.64453125,-23.4375,-37.109375,-15.13671875
4,1746312967214.75,-41.9921875,-21.484375,-34.1796875,-29.296875
5,1746312967218.6562,-37.59765625,-21.484375,-34.66796875,-30.2734375
6,1746312967222.5625,-30.2734375,-25.390625,-32.71484375,-6.34765625
7,1746312967226.4688,-35.15625,-26.85546875,-31.73828125,-8.7890625
8,1746312967230.375,-38.0859375,-25.390625,-36.62109375,-20.01953125
9,1746312967234.2812,-30.76171875,-25.87890625,-37.59765625,-2.9296875
10,1746312967238.1875,-23.92578125,-27.83203125,-36.62109375,21.484375
11,1746312967242.0938,-26.85546875,-32.2265625,-39.0625,-3.41796875
0,1746312967246,-36.62109375,-28.3203125,-37.59765625,-27.83203125
1,1746312967249.9062,-34.66796875,-25.390625,-38.57421875,-20.5078125
2,1746312967253.8125,-24.4140625,-26.3671875,-37.109375,-23.92578125
3,1746312967257.7188,-25.390625,-31.73828125,-35.15625,-9.765625
4,1746312967261.625,-32.2265625,-38.0859375,-39.55078125,-13.671875
5,1746312967265.5312,-39.55078125,-33.203125,-37.59765625,-31.25
6,1746312967269.4375,-31.25,-26.3671875,-33.203125,-7.32421875
7,1746312967273.3438,-27.83203125,-24.90234375,-30.76171875,13.18359375
8,1746312967277.25,-39.0625,-21.97265625,-26.85546875,6.8359375
9,1746312967281.1562,-51.26953125,-27.34375,-32.2265625,-26.3671875
10,1746312967285.0625,-55.17578125,-32.71484375,-36.1328125,-44.921875
11,1746312967288.9688,-42.48046875,-35.15625,-33.203125,-30.76171875
0,1746312967292.875,-38.0859375,-30.2734375,-30.2734375,-20.99609375
1,1746312967296.7812,-37.59765625,-28.80859375,-32.71484375,-23.4375
2,1746312967300.6875,-39.0625,-32.2265625,-33.69140625,-36.1328125
3,1746312967304.5938,-39.55078125,-29.296875,-32.71484375,-13.671875
4,1746312967308.5,-36.62109375,-29.296875,-36.1328125,-2.44140625
5,1746312967312.4062,-29.296875,-27.34375,-36.62109375,-28.80859375
6,1746312967316.3125,-36.62109375,-29.78515625,-29.296875,-31.25
7,1746312967320.2188,-47.8515625,-34.1796875,-27.34375,-18.06640625
8,1746312967324.125,-40.52734375,-32.2265625,-26.3671875,-20.5078125
9,1746312967328.0312,-41.9921875,-34.66796875,-30.2734375,-29.78515625
10,1746312967331.9375,-41.50390625,-39.0625,-33.203125,-23.4375
11,1746312967335.8438,-37.59765625,-40.52734375,-32.71484375,-31.25
0,1746312967339.75,-28.3203125,-36.62109375,-31.25,-27.34375
1,1746312967343.6562,-26.3671875,-34.1796875,-26.85546875,-25.87890625
2,1746312967347.5625,-40.0390625,-33.69140625,-28.3203125,-45.8984375
3,1746312967351.4688,-38.57421875,-35.64453125,-29.78515625,-44.43359375
4,1746312967355.375,-26.85546875,-35.15625,-29.78515625,-28.3203125
5,1746312967359.2812,-26.85546875,-35.15625,-29.78515625,-11.23046875
6,1746312967363.1875,-38.57421875,-35.64453125,-29.78515625,-23.92578125
7,1746312967367.0938,-39.55078125,-31.25,-31.25,-48.828125
8,1746312967371,-31.25,-35.15625,-35.15625,-33.203125
9,1746312967374.9062,-36.1328125,-37.59765625,-35.15625,-22.94921875
10,1746312967378.8125,-38.57421875,-36.1328125,-33.203125,-37.109375
11,1746312967382.7188,-38.0859375,-39.0625,-36.1328125,-34.1796875
0,1746312967386.625,-38.57421875,-36.62109375,-38.0859375,-34.1796875
1,1746312967390.5312,-41.50390625,-35.15625,-34.66796875,-30.76171875
2,1746312967394.4375,-46.875,-40.0390625,-38.57421875,-40.52734375
3,1746312967398.3438,-41.015625,-39.55078125,-37.109375,-55.6640625
4,1746312967402.25,-39.55078125,-33.203125,-34.1796875,-48.33984375
5,1746312967406.1562,-43.9453125,-30.76171875,-37.109375,-37.59765625
6,1746312967410.0625,-27.83203125,-28.3203125,-34.66796875,-30.2734375
7,1746312967413.9688,-29.296875,-33.203125,-35.15625,-22.4609375
8,1746312967417.875,-40.0390625,-36.1328125,-33.69140625,-27.83203125
9,1746312967421.7812,-40.52734375,-36.1328125,-32.2265625,-41.50390625
10,1746312967425.6875,-39.0625,-36.1328125,-32.2265625,-38.0859375
11,1746312967429.5938,-42.96875,-36.62109375,-29.78515625,-37.109375
0,1746312967433.5,-42.48046875,-39.55078125,-32.2265625,-44.921875
1,1746312967437.4062,-36.1328125,-37.109375,-33.203125,-33.69140625
2,1746312967441.3125,-37.109375,-34.1796875,-35.64453125,-29.78515625
3,1746312967445.2188,-40.0390625,-34.1796875,-35.64453125,-48.828125
4,1746312967449.125,-36.62109375,-35.64453125,-30.76171875,-43.9453125
5,1746312967453.0312,-41.50390625,-34.1796875,-27.83203125,-36.1328125
6,1746312967456.9375,-47.8515625,-35.15625,-28.3203125,-32.2265625
7,1746312967460.8438,-51.26953125,-38.57421875,-33.69140625,-41.50390625
8,1746312967464.75,-41.9921875,-32.2265625,-31.25,-52.734375
9,1746312967468.6562,-25.87890625,-29.78515625,-31.73828125,-45.8984375
10,1746312967472.5625,-47.8515625,-34.1796875,-32.2265625,-39.0625
11,1746312967476.4688,-55.17578125,-38.0859375,-28.80859375,-40.0390625
0,1746312967480.375,-40.52734375,-38.0859375,-31.25,-42.96875
1,1746312967484.2812,-39.0625,-36.62109375,-30.76171875,-47.8515625
2,1746312967488.1875,-31.25,-36.62109375,-33.69140625,-36.1328125
3,1746312967492.0938,-32.71484375,-33.69140625,-35.15625,-28.80859375
4,1746312967496,-35.64453125,-33.69140625,-30.76171875,-49.8046875
5,1746312967499.9062,-31.73828125,-33.69140625,-30.76171875,-47.8515625
6,1746312967503.8125,-34.66796875,-32.2265625,-31.73828125,-30.76171875
7,1746312967507.7188,-34.1796875,-34.66796875,-33.203125,-36.62109375
8,1746312967511.625,-32.71484375,-34.1796875,-29.78515625,-41.50390625
9,1746312967515.5312,-31.73828125,-29.296875,-31.25,-37.59765625
10,1746312967519.4375,-27.83203125,-35.64453125,-34.66796875,-37.109375
11,1746312967523.3438,-35.15625,-35.15625,-25.87890625,-13.671875
0,1746312967527.25,-41.015625,-32.2265625,-20.5078125,-32.2265625
1,1746312967531.1562,-51.7578125,-38.57421875,-24.90234375,-65.4296875
2,1746312967535.0625,-44.43359375,-33.203125,-26.85546875,-47.8515625
3,1746312967538.9688,-43.45703125,-28.3203125,-22.4609375,-27.83203125
4,1746312967542.875,-60.546875,-28.80859375,-19.53125,-37.109375
5,1746312967546.7812,-66.40625,-28.80859375,-19.53125,-65.4296875
6,1746312967550.6875,-60.546875,-29.78515625,-18.5546875,-80.56640625
7,1746312967554.5938,-60.546875,-30.76171875,-16.6015625,-76.171875
8,1746312967558.5,-68.359375,-33.69140625,-18.06640625,-70.80078125
9,1746312967562.4062,-71.2890625,-34.66796875,-20.99609375,-86.42578125
10,1746312967566.3125,-77.1484375,-35.15625,-20.5078125,-76.171875
11,1746312967570.2188,-71.77734375,-36.1328125,-25.87890625,-72.265625
0,1746312967574.125,-73.73046875,-37.109375,-29.78515625,-100.5859375
1,1746312967578.0312,-95.21484375,-36.62109375,-22.94921875,-100.5859375
2,1746312967581.9375,-95.21484375,-37.109375,-16.11328125,-97.65625
3,1746312967585.8438,-76.171875,-33.69140625,-19.04296875,-86.42578125
4,1746312967589.75,-71.2890625,-28.3203125,-24.90234375,-73.73046875
5,1746312967593.6562,-69.82421875,-30.2734375,-23.92578125,-83.0078125
6,1746312967597.5625,-72.75390625,-31.73828125,-20.01953125,-76.171875
7,1746312967601.4688,-76.66015625,-26.85546875,-19.53125,-61.5234375
8,1746312967605.375,-63.96484375,-23.4375,-21.97265625,-41.015625
9,1746312967609.2812,-55.6640625,-28.80859375,-27.83203125,-44.921875
10,1746312967613.1875,-65.91796875,-29.296875,-30.76171875,-75.68359375
11,1746312967617.0938,-56.15234375,-29.296875,-32.2265625,-55.17578125
0,1746312967621,-37.109375,-34.1796875,-31.73828125,-31.73828125
1,1746312967624.9062,-32.2265625,-35.15625,-32.71484375,-29.78515625
2,1746312967628.8125,-21.484375,-38.57421875,-36.1328125,-36.62109375
3,1746312967632.7188,-12.20703125,-40.52734375,-37.59765625,-40.52734375
4,1746312967636.625,-2.44140625,-37.59765625,-39.55078125,-17.08984375
5,1746312967640.5312,1.953125,-31.73828125,-40.0390625,-5.859375
6,1746312967644.4375,-3.90625,-32.2265625,-43.45703125,-23.4375
7,1746312967648.3438,0.9765625,-35.64453125,-47.36328125,-27.34375
8,1746312967652.25,2.44140625,-35.64453125,-41.50390625,-18.5546875
9,1746312967656.1562,3.90625,-37.59765625,-34.66796875,1.46484375
10,1746312967660.0625,-4.39453125,-39.55078125,-42.96875,-1.46484375
11,1746312967663.9688,-9.27734375,-37.59765625,-56.640625,-18.5546875
0,1746312967667.875,5.859375,-32.71484375,-46.875,-9.27734375
1,1746312967671.7812,0.9765625,-32.2265625,-34.66796875,-11.71875
2,1746312967675.6875,-10.25390625,-35.15625,-34.1796875,-22.94921875
3,1746312967679.5938,-1.953125,-34.66796875,-32.2265625,-18.5546875
4,1746312967683.5,-7.8125,-36.62109375,-34.66796875,-10.7421875
5,1746312967687.4062,-12.20703125,-38.0859375,-33.69140625,-18.5546875
6,1746312967691.3125,-6.8359375,-38.0859375,-35.15625,-21.97265625
7,1746312967695.2188,-17.08984375,-39.0625,-39.0625,-27.34375
8,1746312967699.125,-31.25,-37.109375,-33.69140625,-34.1796875
9,1746312967703.0312,-19.53125,-41.9921875,-34.1796875,-16.6015625
10,1746312967706.9375,-13.18359375,-44.43359375,-37.109375,1.953125
11,1746312967710.8438,-21.484375,-40.52734375,-38.0859375,-13.671875
0,1746312967714.75,-20.99609375,-40.52734375,-35.64453125,-27.83203125
1,1746312967718.6562,-10.7421875,-39.0625,-35.15625,-22.4609375
2,1746312967722.5625,-19.04296875,-37.59765625,-40.0390625,-10.7421875
3,1746312967726.4688,-26.85546875,-42.96875,-35.64453125,-14.6484375
4,1746312967730.375,-24.4140625,-37.59765625,-30.2734375,-28.80859375
5,1746312967734.2812,-32.2265625,-32.71484375,-35.64453125,-33.69140625
6,1746312967738.1875,-25.87890625,-36.62109375,-37.59765625,-13.671875
7,1746312967742.0938,-12.6953125,-34.66796875,-33.203125,-10.25390625
8,1746312967746,-22.94921875,-33.203125,-35.64453125,-24.90234375
9,1746312967749.9062,-30.2734375,-38.0859375,-37.59765625,-28.80859375
10,1746312967753.8125,-29.296875,-37.59765625,-38.0859375,-41.015625
11,1746312967757.7188,-23.92578125,-33.203125,-36.62109375,-25.87890625
0,1746312967761.625,-22.94921875,-36.1328125,-32.2265625,-17.578125
1,1746312967765.5312,-30.2734375,-40.0390625,-29.296875,-18.06640625
2,1746312967769.4375,-28.3203125,-41.50390625,-30.2734375,2.44140625
3,1746312967773.3438,-38.0859375,-44.43359375,-32.71484375,-25.390625
4,1746312967777.25,-38.0859375,-39.0625,-29.296875,-54.19921875
5,1746312967781.1562,-30.2734375,-34.66796875,-26.85546875,-42.48046875
6,1746312967785.0625,-31.25,-37.59765625,-28.80859375,-36.62109375
7,1746312967788.9688,-15.13671875,-30.2734375,-31.25,-36.62109375
8,1746312967792.875,-12.20703125,-26.85546875,-40.0390625,-45.41015625
9,1746312967796.7812,-25.390625,-33.69140625,-42.96875,-48.828125
10,1746312967800.6875,-27.34375,-32.2265625,-37.59765625,-32.2265625
11,1746312967804.5938,-17.08984375,-30.2734375,-31.73828125,-14.16015625
0,1746312967808.5,-13.18359375,-35.15625,-34.66796875,-25.390625
1,1746312967812.4062,-24.90234375,-35.15625,-38.0859375,-49.31640625
2,1746312967816.3125,-37.59765625,-35.15625,-34.1796875,-42.48046875
3,1746312967820.2188,-23.92578125,-34.66796875,-32.71484375,-17.08984375
4,1746312967824.125,-13.18359375,-34.66796875,-32.71484375,-24.4140625
5,1746312967828.0312,-44.43359375,-35.64453125,-35.64453125,-55.6640625
6,1746312967831.9375,-41.015625,-30.76171875,-39.0625,-43.9453125
7,1746312967835.8438,-20.01953125,-24.4140625,-29.78515625,-32.71484375
8,1746312967839.75,-9.765625,-25.87890625,-25.87890625,-35.15625
9,1746312967843.6562,-13.18359375,-27.34375,-28.3203125,-30.2734375
10,1746312967847.5625,-28.80859375,-24.4140625,-32.71484375,-40.52734375
11,1746312967851.4688,-31.25,-24.90234375,-35.15625,-40.0390625
0,1746312967855.375,-24.90234375,-27.34375,-29.78515625,-29.296875
1,1746312967859.2812,-29.296875,-31.25,-31.73828125,-28.3203125
2,1746312967863.1875,-45.41015625,-30.76171875,-35.15625,-61.5234375
3,1746312967867.0938,-58.10546875,-31.25,-31.25,-62.98828125
4,1746312967871,-32.2265625,-31.25,-24.90234375,-37.109375
5,1746312967874.9062,-23.4375,-26.3671875,-18.5546875,-41.50390625
6,1746312967878.8125,-60.546875,-24.90234375,-16.6015625,-55.17578125
7,1746312967882.7188,-53.7109375,-29.78515625,-22.94921875,-62.5
8,1746312967886.625,-55.17578125,-31.25,-23.4375,-64.94140625
9,1746312967890.5312,-69.82421875,-30.76171875,-23.4375,-61.03515625
10,1746312967894.4375,-79.58984375,-36.62109375,-25.87890625,-73.73046875
11,1746312967898.3438,-77.1484375,-37.59765625,-25.390625,-88.8671875
0,1746312967902.25,-73.73046875,-31.73828125,-27.83203125,-98.14453125
1,1746312967906.1562,-82.03125,-32.2265625,-24.4140625,-109.375
2,1746312967910.0625,-86.9140625,-35.64453125,-15.13671875,-100.09765625
3,1746312967913.9688,-97.65625,-33.69140625,-12.20703125,-77.1484375
4,1746312967917.875,-96.6796875,-33.69140625,-12.20703125,-69.3359375
5,1746312967921.7812,-91.30859375,-34.1796875,-14.6484375,-74.21875
6,1746312967925.6875,-105.46875,-33.69140625,-20.01953125,-83.984375
7,1746312967929.5938,-123.53515625,-34.66796875,-19.53125,-107.421875
8,1746312967933.5,-135.25390625,-31.73828125,-16.11328125,-115.72265625
9,1746312967937.4062,-127.44140625,-22.94921875,-20.01953125,-85.9375
10,1746312967941.3125,-117.67578125,-20.5078125,-23.4375,-69.3359375
11,1746312967945.2188,-134.765625,-33.203125,-20.01953125,-108.88671875
0,1746312967949.125,-127.9296875,-33.203125,-21.97265625,-128.41796875
1,1746312967953.0312,-108.3984375,-25.87890625,-20.99609375,-99.609375
2,1746312967956.9375,-105.46875,-27.34375,-24.4140625,-67.87109375
3,1746312967960.8438,-100.09765625,-25.87890625,-31.73828125,-59.5703125
4,1746312967964.75,-96.19140625,-21.97265625,-27.34375,-52.734375
5,1746312967968.6562,-97.65625,-21.97265625,-24.4140625,-38.0859375
6,1746312967972.5625,-81.0546875,-22.4609375,-24.4140625,-29.296875
7,1746312967976.4688,-72.265625,-22.4609375,-22.94921875,-15.13671875
8,1746312967980.375,-79.58984375,-22.94921875,-22.4609375,-10.7421875
9,1746312967984.2812,-62.5,-23.4375,-14.16015625,8.30078125
10,1746312967988.1875,-38.57421875,-25.390625,-16.11328125,20.01953125
11,1746312967992.0938,-40.52734375,-24.90234375,-23.92578125,11.23046875
0,1746312967996,-36.62109375,-23.4375,-24.4140625,7.8125
1,1746312967999.9062,-13.671875,-27.34375,-24.4140625,35.64453125
2,1746312968003.8125,-10.25390625,-29.296875,-24.4140625,56.15234375
3,1746312968007.7188,-0.48828125,-26.3671875,-24.90234375,54.19921875
4,1746312968011.625,10.7421875,-31.25,-23.4375,59.5703125
5,1746312968015.5312,5.859375,-30.2734375,-28.3203125,57.12890625
6,1746312968019.4375,10.7421875,-27.34375,-30.2734375,60.546875
7,1746312968023.3438,12.20703125,-32.2265625,-33.69140625,62.98828125
8,1746312968027.25,14.6484375,-33.203125,-38.57421875,48.33984375
9,1746312968031.1562,18.06640625,-27.83203125,-36.62109375,39.55078125
10,1746312968035.0625,27.34375,-26.3671875,-31.25,56.15234375
11,1746312968038.9688,23.4375,-30.76171875,-27.34375,52.24609375
0,1746312968042.875,16.11328125,-25.87890625,-31.73828125,30.76171875
1,1746312968046.7812,11.71875,-27.34375,-38.57421875,13.671875
2,1746312968050.6875,13.18359375,-35.15625,-36.62109375,41.50390625
3,1746312968054.5938,3.41796875,-35.64453125,-29.78515625,80.078125
4,1746312968058.5,-0.9765625,-29.296875,-27.34375,41.50390625
5,1746312968062.4062,6.8359375,-25.87890625,-31.25,-2.44140625
6,1746312968066.3125,-2.9296875,-31.73828125,-38.0859375,-2.44140625
7,1746312968070.2188,2.44140625,-31.25,-37.59765625,14.6484375
8,1746312968074.125,8.30078125,-23.4375,-34.66796875,10.25390625
9,1746312968078.0312,-18.06640625,-31.73828125,-36.62109375,3.90625
10,1746312968081.9375,-19.04296875,-33.69140625,-34.66796875,18.5546875
11,1746312968085.8438,-7.8125,-29.296875,-31.73828125,15.13671875
0,1746312968089.75,-9.27734375,-26.3671875,-34.66796875,-10.7421875
1,1746312968093.6562,0.48828125,-27.83203125,-32.2265625,-29.78515625
2,1746312968097.5625,-7.8125,-32.71484375,-33.203125,-23.92578125
3,1746312968101.4688,-14.16015625,-31.25,-38.57421875,-6.8359375
4,1746312968105.375,-21.97265625,-32.71484375,-35.64453125,1.46484375
5,1746312968109.2812,-2.44140625,-30.2734375,-34.66796875,-2.9296875
6,1746312968113.1875,5.859375,-29.296875,-36.62109375,-20.5078125
7,1746312968117.0938,-16.11328125,-31.73828125,-31.73828125,-21.97265625
8,1746312968121,-16.11328125,-31.73828125,-33.203125,-8.30078125
9,1746312968124.9062,-9.27734375,-30.76171875,-35.15625,-4.39453125
10,1746312968128.8125,-23.92578125,-33.203125,-34.1796875,-22.4609375
11,1746312968132.7188,-21.484375,-33.203125,-34.1796875,-31.25
0,1746312968136.625,-9.765625,-29.78515625,-33.203125,-30.76171875
1,1746312968140.5312,-20.99609375,-31.25,-35.15625,-21.484375
2,1746312968144.4375,-31.25,-31.25,-36.1328125,5.859375
3,1746312968148.3438,-41.015625,-33.203125,-31.73828125,24.4140625
4,1746312968152.25,-34.66796875,-34.1796875,-28.3203125,29.78515625
5,1746312968156.1562,-13.18359375,-28.80859375,-31.73828125,26.3671875
6,1746312968160.0625,-9.27734375,-25.87890625,-37.109375,32.71484375
7,1746312968163.9688,-25.87890625,-29.78515625,-32.71484375,32.2265625
8,1746312968167.875,-35.64453125,-36.62109375,-26.85546875,-5.37109375
9,1746312968171.7812,-19.04296875,-34.1796875,-30.76171875,-7.32421875
10,1746312968175.6875,-30.2734375,-32.71484375,-36.62109375,15.625
11,1746312968179.5938,-29.78515625,-25.390625,-33.203125,12.20703125
0,1746312968183.5,-27.34375,-21.97265625,-27.83203125,12.6953125
1,1746312968187.4062,-38.0859375,-35.15625,-17.578125,30.76171875
2,1746312968191.3125,-38.57421875,-36.62109375,-19.53125,32.2265625
3,1746312968195.2188,-37.109375,-34.66796875,-27.83203125,19.53125
4,1746312968199.125,-42.96875,-29.296875,-25.87890625,27.83203125
5,1746312968203.0312,-29.296875,-25.390625,-26.3671875,31.73828125
6,1746312968206.9375,-26.85546875,-29.296875,-29.296875,18.06640625
7,1746312968210.8438,-30.2734375,-37.59765625,-31.25,6.8359375
8,1746312968214.75,-7.8125,-38.0859375,-31.73828125,14.16015625
9,1746312968218.6562,-20.99609375,-35.64453125,-29.78515625,12.6953125
10,1746312968222.5625,-14.6484375,-29.78515625,-29.78515625,19.53125
11,1746312968226.4688,-5.859375,-31.25,-28.80859375,32.2265625
0,1746312968230.375,-44.921875,-32.2265625,-28.3203125,13.18359375
1,1746312968234.2812,-43.9453125,-26.85546875,-28.3203125,-13.671875
2,1746312968238.1875,-16.11328125,-25.390625,-27.34375,0.48828125
3,1746312968242.0938,-26.85546875,-20.5078125,-31.25,5.859375
4,1746312968246,-43.9453125,-25.87890625,-29.78515625,-7.8125
5,1746312968249.9062,-38.0859375,-23.92578125,-27.83203125,-3.90625
6,1746312968253.8125,-25.87890625,-18.06640625,-30.76171875,2.9296875
7,1746312968257.7188,-17.578125,-33.203125,-28.80859375,21.97265625
8,1746312968261.625,-41.015625,-40.0390625,-24.4140625,-1.953125
9,1746312968265.5312,-44.921875,-35.64453125,-22.4609375,-43.45703125
10,1746312968269.4375,-20.5078125,-25.390625,-27.83203125,-25.390625
11,1746312968273.3438,-18.06640625,-16.11328125,-31.25,-17.578125
0,1746312968277.25,-24.4140625,-24.4140625,-32.2265625,-33.69140625
1,1746312968281.1562,-35.64453125,-38.0859375,-37.109375,-37.109375
2,1746312968285.0625,-39.55078125,-36.1328125,-36.1328125,-30.2734375
3,1746312968288.9688,-20.99609375,-35.15625,-31.73828125,-25.87890625
4,1746312968292.875,-33.69140625,-35.64453125,-33.203125,-47.8515625
5,1746312968296.7812,-36.1328125,-35.15625,-37.109375,-59.08203125
6,1746312968300.6875,-38.57421875,-38.57421875,-37.109375,-46.38671875
7,1746312968304.5938,-54.6875,-36.1328125,-34.1796875,-32.2265625
8,1746312968308.5,-26.3671875,-28.80859375,-30.2734375,-37.109375
9,1746312968312.4062,-25.390625,-26.85546875,-32.71484375,-80.56640625
10,1746312968316.3125,-41.015625,-32.71484375,-34.1796875,-61.03515625
11,1746312968320.2188,-26.85546875,-39.0625,-33.203125,-21.484375
0,1746312968324.125,-38.57421875,-29.78515625,-34.1796875,-58.10546875
1,1746312968328.0312,-44.43359375,-30.2734375,-30.2734375,-65.4296875
2,1746312968331.9375,-41.015625,-34.1796875,-30.76171875,-42.96875
3,1746312968335.8438,-34.66796875,-28.3203125,-35.15625,-61.5234375
4,1746312968339.75,-24.90234375,-36.62109375,-28.3203125,-71.2890625
5,1746312968343.6562,-33.203125,-32.2265625,-27.83203125,-59.08203125
6,1746312968347.5625,-26.3671875,-34.66796875,-26.85546875,-56.15234375
7,1746312968351.4688,-24.90234375,-37.59765625,-24.90234375,-75.68359375
8,1746312968355.375,-25.390625,-34.1796875,-26.85546875,-59.08203125
9,1746312968359.2812,-24.4140625,-38.0859375,-32.71484375,-34.1796875
10,1746312968363.1875,-41.015625,-35.64453125,-37.59765625,-73.2421875
11,1746312968367.0938,-36.1328125,-31.73828125,-32.71484375,-76.171875
0,1746312968371,-24.4140625,-33.69140625,-24.90234375,-55.17578125
1,1746312968374.9062,-29.296875,-28.80859375,-29.296875,-60.546875
2,1746312968378.8125,-42.96875,-29.296875,-33.203125,-66.40625
3,1746312968382.7188,-41.015625,-36.1328125,-30.2734375,-70.3125
4,1746312968386.625,-26.3671875,-30.76171875,-29.296875,-69.82421875
5,1746312968390.5312,-21.97265625,-31.73828125,-27.83203125,-64.94140625
6,1746312968394.4375,-27.83203125,-36.62109375,-36.62109375,-61.5234375
7,1746312968398.3438,-31.25,-35.15625,-36.1328125,-71.77734375
8,1746312968402.25,-27.34375,-37.59765625,-29.78515625,-65.4296875
9,1746312968406.1562,-28.3203125,-37.59765625,-27.83203125,-40.0390625
10,1746312968410.0625,-23.4375,-30.2734375,-28.80859375,-51.26953125
11,1746312968413.9688,-26.85546875,-29.78515625,-34.1796875,-79.58984375
0,1746312968417.875,-46.875,-32.2265625,-31.25,-87.40234375
1,1746312968421.7812,-32.71484375,-37.59765625,-21.484375,-57.6171875
2,1746312968425.6875,-18.06640625,-39.0625,-25.390625,-60.05859375
3,1746312968429.5938,-45.41015625,-35.15625,-36.62109375,-88.37890625
4,1746312968433.5,-50.29296875,-35.64453125,-31.73828125,-62.98828125
5,1746312968437.4062,-36.62109375,-33.203125,-23.4375,-47.36328125
6,1746312968441.3125,-24.4140625,-33.69140625,-22.4609375,-58.10546875
7,1746312968445.2188,-20.99609375,-35.64453125,-25.87890625,-62.5
8,1746312968449.125,-22.4609375,-33.69140625,-26.85546875,-64.94140625
9,1746312968453.0312,-17.578125,-29.296875,-25.390625,-53.22265625
10,1746312968456.9375,-18.5546875,-27.34375,-32.2265625,-55.6640625
11,1746312968460.8438,-29.296875,-37.59765625,-35.15625,-57.6171875
0,1746312968464.75,-35.15625,-38.57421875,-33.69140625,-62.01171875
1,1746312968468.6562,-26.85546875,-34.66796875,-33.203125,-69.3359375
2,1746312968472.5625,-25.87890625,-27.83203125,-28.80859375,-59.08203125
3,1746312968476.4688,-31.73828125,-29.78515625,-31.25,-67.3828125
4,1746312968480.375,-48.828125,-32.71484375,-32.71484375,-85.44921875
5,1746312968484.2812,-43.9453125,-34.66796875,-36.1328125,-46.38671875
6,1746312968488.1875,-29.296875,-37.109375,-38.57421875,-27.83203125
7,1746312968492.0938,-37.109375,-30.76171875,-36.62109375,-59.5703125
8,1746312968496,-49.8046875,-31.25,-32.71484375,-62.01171875
9,1746312968499.9062,-43.45703125,-35.15625,-37.59765625,-63.96484375
10,1746312968503.8125,-25.87890625,-40.0390625,-37.59765625,-55.6640625
11,1746312968507.7188,-41.015625,-40.52734375,-28.80859375,-33.69140625
0,1746312968511.625,-53.7109375,-38.57421875,-29.78515625,-48.828125
1,1746312968515.5312,-43.9453125,-32.2265625,-30.76171875,-69.82421875
2,1746312968519.4375,-42.48046875,-30.76171875,-32.2265625,-52.24609375
3,1746312968523.3438,-20.01953125,-32.2265625,-34.66796875,-33.69140625
4,1746312968527.25,-23.4375,-30.2734375,-35.15625,-52.24609375
5,1746312968531.1562,-41.015625,-29.296875,-32.71484375,-61.5234375
6,1746312968535.0625,-40.52734375,-25.87890625,-32.2265625,-60.546875
7,1746312968538.9688,-41.015625,-27.34375,-28.3203125,-57.12890625
8,1746312968542.875,-38.0859375,-32.71484375,-22.4609375,-53.7109375
9,1746312968546.7812,-37.59765625,-30.76171875,-26.85546875,-73.73046875
10,1746312968550.6875,-40.52734375,-31.73828125,-30.2734375,-69.3359375
11,1746312968554.5938,-32.71484375,-32.2265625,-33.203125,-53.7109375
0,1746312968558.5,-24.90234375,-29.78515625,-32.71484375,-56.640625
1,1746312968562.4062,-23.92578125,-27.83203125,-30.76171875,-57.12890625
2,1746312968566.3125,-26.85546875,-26.85546875,-31.73828125,-53.22265625
3,1746312968570.2188,-26.85546875,-36.62109375,-29.78515625,-46.875
4,1746312968574.125,-29.296875,-29.296875,-33.203125,-46.38671875
5,1746312968578.0312,-42.96875,-24.4140625,-31.25,-55.17578125
6,1746312968581.9375,-43.45703125,-29.296875,-30.2734375,-56.15234375
7,1746312968585.8438,-50.29296875,-31.25,-33.69140625,-37.59765625
8,1746312968589.75,-39.55078125,-36.62109375,-30.2734375,-35.15625
9,1746312968593.6562,-29.78515625,-31.73828125,-34.1796875,-54.6875
10,1746312968597.5625,-40.0390625,-32.71484375,-32.71484375,-49.31640625
11,1746312968601.4688,-30.2734375,-36.1328125,-29.296875,-62.01171875
0,1746312968605.375,-23.92578125,-37.59765625,-31.73828125,-63.4765625
1,1746312968609.2812,-35.15625,-29.78515625,-27.83203125,-50.29296875
2,1746312968613.1875,-32.2265625,-26.3671875,-26.85546875,-60.546875
3,1746312968617.0938,-29.78515625,-30.2734375,-26.85546875,-50.29296875
4,1746312968621,-44.921875,-31.73828125,-25.390625,-33.203125
5,1746312968624.9062,-36.62109375,-30.2734375,-27.34375,-52.24609375
6,1746312968628.8125,-28.80859375,-29.78515625,-30.2734375,-61.5234375
7,1746312968632.7188,-43.9453125,-34.66796875,-31.25,-41.9921875
8,1746312968636.625,-48.33984375,-35.64453125,-36.1328125,-23.92578125
9,1746312968640.5312,-29.296875,-33.69140625,-37.59765625,-43.45703125
10,1746312968644.4375,-30.2734375,-28.80859375,-35.15625,-62.5
11,1746312968648.3438,-39.0625,-25.87890625,-36.62109375,-49.8046875
0,1746312968652.25,-19.04296875,-38.0859375,-32.71484375,-41.015625
1,1746312968656.1562,-32.71484375,-37.59765625,-35.15625,-44.921875
2,1746312968660.0625,-41.015625,-32.71484375,-40.0390625,-41.015625
3,1746312968663.9688,-28.3203125,-31.25,-40.52734375,-30.2734375
4,1746312968667.875,-27.34375,-27.34375,-34.66796875,-45.41015625
5,1746312968671.7812,-14.16015625,-31.25,-28.80859375,-49.8046875
6,1746312968675.6875,-26.85546875,-32.71484375,-32.71484375,-46.38671875
7,1746312968679.5938,-36.1328125,-31.73828125,-34.1796875,-58.59375
8,1746312968683.5,-32.2265625,-24.90234375,-29.296875,-58.10546875
9,1746312968687.4062,-35.15625,-21.484375,-31.25,-44.43359375
10,1746312968691.3125,-28.80859375,-35.64453125,-32.2265625,-40.0390625
11,1746312968695.2188,-19.53125,-31.73828125,-29.296875,-39.0625
0,1746312968699.125,-37.109375,-30.76171875,-34.1796875,-63.4765625
1,1746312968703.0312,-37.59765625,-30.76171875,-41.015625,-44.921875
2,1746312968706.9375,-21.97265625,-22.4609375,-42.48046875,-29.78515625
3,1746312968710.8438,-31.25,-34.66796875,-36.62109375,-62.98828125
4,1746312968714.75,-40.52734375,-38.0859375,-32.71484375,-76.171875
5,1746312968718.6562,-33.69140625,-31.73828125,-30.2734375,-52.24609375
6,1746312968722.5625,-34.1796875,-34.1796875,-33.69140625,-39.55078125
7,1746312968726.4688,-39.55078125,-36.1328125,-38.57421875,-63.96484375
8,1746312968730.375,-34.66796875,-37.109375,-33.69140625,-68.359375
9,1746312968734.2812,-36.1328125,-33.69140625,-32.2265625,-54.6875
10,1746312968738.1875,-31.25,-26.3671875,-34.66796875,-33.69140625
11,1746312968742.0938,-20.01953125,-31.25,-31.25,-40.52734375
0,1746312968746,-32.71484375,-34.66796875,-31.25,-72.265625
1,1746312968749.9062,-43.45703125,-29.78515625,-32.2265625,-63.96484375
2,1746312968753.8125,-33.69140625,-31.25,-30.76171875,-50.29296875
3,1746312968757.7188,-34.1796875,-26.3671875,-26.3671875,-56.15234375
4,1746312968761.625,-39.0625,-27.34375,-20.01953125,-54.6875
5,1746312968765.5312,-28.80859375,-33.69140625,-21.97265625,-49.8046875
6,1746312968769.4375,-33.203125,-31.25,-28.80859375,-44.921875
7,1746312968773.3438,-49.31640625,-26.85546875,-29.78515625,-55.17578125
8,1746312968777.25,-54.19921875,-31.25,-28.3203125,-59.5703125
9,1746312968781.1562,-46.875,-32.71484375,-31.73828125,-52.734375
10,1746312968785.0625,-46.875,-25.390625,-32.71484375,-57.6171875
11,1746312968788.9688,-53.7109375,-26.85546875,-29.78515625,-49.8046875
0,1746312968792.875,-47.8515625,-31.73828125,-26.3671875,-62.01171875
1,1746312968796.7812,-60.546875,-34.66796875,-20.01953125,-92.28515625
2,1746312968800.6875,-86.9140625,-28.80859375,-23.92578125,-95.21484375
3,1746312968804.5938,-92.7734375,-25.390625,-27.83203125,-85.9375
4,1746312968808.5,-99.609375,-35.15625,-22.4609375,-103.515625
5,1746312968812.4062,-108.88671875,-31.25,-23.92578125,-113.28125
6,1746312968816.3125,-106.4453125,-35.15625,-20.01953125,-106.93359375
7,1746312968820.2188,-115.72265625,-39.55078125,-17.08984375,-122.55859375
8,1746312968824.125,-115.72265625,-31.25,-20.5078125,-125
9,1746312968828.0312,-117.67578125,-32.2265625,-20.01953125,-128.90625
10,1746312968831.9375,-124.0234375,-34.1796875,-14.16015625,-141.6015625
11,1746312968835.8438,-139.16015625,-31.73828125,-18.5546875,-129.39453125
0,1746312968839.75,-146.97265625,-30.2734375,-24.4140625,-115.234375
1,1746312968843.6562,-126.46484375,-34.66796875,-23.92578125,-142.08984375
2,1746312968847.5625,-139.6484375,-39.55078125,-22.4609375,-158.203125
3,1746312968851.4688,-149.4140625,-35.15625,-20.5078125,-144.04296875
4,1746312968855.375,-128.41796875,-32.2265625,-18.06640625,-108.3984375
5,1746312968859.2812,-104.98046875,-29.78515625,-17.578125,-96.19140625
6,1746312968863.1875,-96.6796875,-29.78515625,-22.94921875,-108.88671875
7,1746312968867.0938,-103.515625,-39.55078125,-20.01953125,-110.3515625
8,1746312968871,-95.703125,-37.109375,-18.06640625,-103.02734375
9,1746312968874.9062,-82.03125,-31.73828125,-20.99609375,-88.8671875
10,1746312968878.8125,-79.1015625,-34.1796875,-31.25,-84.9609375
11,1746312968882.7188,-78.61328125,-41.9921875,-38.57421875,-90.8203125
0,1746312968886.625,-74.70703125,-38.57421875,-26.85546875,-75.68359375
1,1746312968890.5312,-69.82421875,-34.66796875,-24.4140625,-61.5234375
2,1746312968894.4375,-52.24609375,-39.55078125,-24.90234375,-49.31640625
3,1746312968898.3438,-42.48046875,-42.48046875,-29.296875,-38.0859375
4,1746312968902.25,-21.484375,-38.57421875,-35.15625,-20.5078125
5,1746312968906.1562,1.46484375,-33.69140625,-35.15625,2.9296875
6,1746312968910.0625,-2.9296875,-41.9921875,-38.0859375,-12.6953125
7,1746312968913.9688,-6.8359375,-39.55078125,-39.55078125,-34.1796875
8,1746312968917.875,-1.953125,-37.59765625,-38.57421875,-5.859375
9,1746312968921.7812,-6.34765625,-38.0859375,-46.38671875,20.01953125
10,1746312968925.6875,-4.8828125,-33.69140625,-42.48046875,-1.46484375
11,1746312968929.5938,4.8828125,-41.50390625,-27.83203125,-3.41796875
0,1746312968933.5,1.953125,-36.62109375,-18.5546875,-0.9765625
1,1746312968937.4062,8.7890625,-30.76171875,-19.04296875,1.46484375
2,1746312968941.3125,15.13671875,-32.71484375,-31.73828125,22.4609375
3,1746312968945.2188,25.390625,-36.62109375,-26.3671875,30.76171875
4,1746312968949.125,20.5078125,-34.66796875,-15.13671875,19.53125
5,1746312968953.0312,6.34765625,-30.76171875,-16.6015625,5.859375
6,1746312968956.9375,19.04296875,-27.34375,-19.04296875,1.953125
7,1746312968960.8438,12.20703125,-26.85546875,-24.90234375,-18.06640625
8,1746312968964.75,7.32421875,-31.73828125,-26.3671875,-2.9296875
9,1746312968968.6562,7.32421875,-28.80859375,-22.4609375,39.55078125
10,1746312968972.5625,1.953125,-25.87890625,-30.76171875,23.4375
11,1746312968976.4688,-14.16015625,-30.2734375,-39.0625,-10.25390625
0,1746312968980.375,-11.71875,-32.2265625,-43.45703125,-29.296875
1,1746312968984.2812,0.9765625,-32.2265625,-41.9921875,-25.87890625
2,1746312968988.1875,-4.39453125,-33.69140625,-39.0625,-8.30078125
3,1746312968992.0938,-5.859375,-38.0859375,-42.96875,-3.41796875
4,1746312968996,-0.48828125,-33.203125,-38.0859375,-20.5078125
5,1746312968999.9062,4.39453125,-26.3671875,-30.76171875,-21.97265625
6,1746312969003.8125,-14.16015625,-27.83203125,-35.15625,-16.6015625
7,1746312969007.7188,-5.859375,-33.203125,-36.62109375,-17.08984375
8,1746312969011.625,-5.859375,-38.0859375,-36.1328125,-13.671875
9,1746312969015.5312,-29.78515625,-31.25,-33.203125,-8.7890625
10,1746312969019.4375,-18.5546875,-31.73828125,-21.97265625,-6.34765625
11,1746312969023.3438,-1.46484375,-31.73828125,-26.3671875,-16.6015625
0,1746312969027.25,-4.39453125,-27.83203125,-32.71484375,-6.34765625
1,1746312969031.1562,-19.04296875,-26.3671875,-25.390625,-1.953125
2,1746312969035.0625,-24.4140625,-27.83203125,-20.5078125,-8.7890625
3,1746312969038.9688,-13.18359375,-27.34375,-25.390625,-14.16015625
4,1746312969042.875,-10.7421875,-24.4140625,-30.76171875,-27.34375
5,1746312969046.7812,-30.2734375,-24.90234375,-28.3203125,-32.2265625
6,1746312969050.6875,-23.92578125,-26.3671875,-29.296875,-36.1328125
7,1746312969054.5938,-14.6484375,-24.90234375,-31.73828125,-20.01953125
8,1746312969058.5,-13.18359375,-30.76171875,-40.0390625,-14.6484375
9,1746312969062.4062,-20.99609375,-32.71484375,-41.50390625,-27.83203125
10,1746312969066.3125,-30.76171875,-27.34375,-35.64453125,-32.2265625
11,1746312969070.2188,-15.13671875,-28.3203125,-30.76171875,-17.578125
0,1746312969074.125,-11.71875,-34.1796875,-28.80859375,-3.90625
1,1746312969078.0312,-20.99609375,-26.85546875,-30.2734375,-31.25
2,1746312969081.9375,-13.671875,-26.85546875,-25.390625,-39.0625
3,1746312969085.8438,-26.3671875,-26.85546875,-28.3203125,-18.06640625
4,1746312969089.75,-20.5078125,-23.92578125,-32.2265625,-14.16015625
5,1746312969093.6562,-14.6484375,-24.4140625,-29.78515625,-24.90234375
6,1746312969097.5625,-22.94921875,-23.92578125,-31.25,-29.296875
7,1746312969101.4688,-30.76171875,-29.296875,-29.78515625,-26.3671875
8,1746312969105.375,-21.97265625,-29.296875,-28.3203125,-16.11328125
9,1746312969109.2812,-18.06640625,-28.3203125,-31.25,-20.01953125
10,1746312969113.1875,-26.3671875,-26.85546875,-31.25,-30.76171875
11,1746312969117.0938,-27.34375,-25.87890625,-31.73828125,-24.4140625
0,1746312969121,-28.80859375,-25.87890625,-35.15625,-7.32421875
1,1746312969124.9062,-25.390625,-27.83203125,-31.25,-10.25390625
2,1746312969128.8125,-30.76171875,-27.83203125,-28.3203125,-54.19921875
3,1746312969132.7188,-35.15625,-33.69140625,-29.78515625,-53.22265625
4,1746312969136.625,-37.109375,-39.0625,-34.66796875,-20.99609375
5,1746312969140.5312,-35.15625,-30.2734375,-37.109375,-20.99609375
6,1746312969144.4375,-29.78515625,-24.4140625,-35.15625,-25.390625
7,1746312969148.3438,-31.25,-26.85546875,-34.1796875,-33.69140625
8,1746312969152.25,-30.2734375,-29.296875,-33.69140625,-25.87890625
9,1746312969156.1562,-20.5078125,-27.83203125,-35.15625,-24.90234375
10,1746312969160.0625,-15.13671875,-25.390625,-36.1328125,-20.01953125
11,1746312969163.9688,-25.390625,-26.85546875,-31.73828125,-21.484375
0,1746312969167.875,-27.34375,-31.25,-31.73828125,-40.0390625
1,1746312969171.7812,-30.2734375,-28.80859375,-33.69140625,-45.8984375
2,1746312969175.6875,-30.76171875,-31.25,-36.1328125,-37.59765625
3,1746312969179.5938,-14.6484375,-31.25,-33.69140625,-24.90234375
4,1746312969183.5,-21.97265625,-21.97265625,-33.69140625,-24.4140625
5,1746312969187.4062,-35.15625,-20.5078125,-34.1796875,-22.4609375
6,1746312969191.3125,-26.3671875,-28.3203125,-33.69140625,-20.99609375
7,1746312969195.2188,-33.203125,-32.71484375,-31.73828125,-28.80859375
8,1746312969199.125,-45.41015625,-29.78515625,-30.76171875,-28.80859375
9,1746312969203.0312,-35.15625,-30.76171875,-34.1796875,-21.97265625
10,1746312969206.9375,-36.62109375,-36.62109375,-36.62109375,-21.97265625
11,1746312969210.8438,-40.52734375,-42.48046875,-34.66796875,-28.80859375
0,1746312969214.75,-27.83203125,-42.48046875,-30.2734375,-26.85546875
1,1746312969218.6562,-27.34375,-34.66796875,-28.3203125,-17.578125
2,1746312969222.5625,-35.64453125,-30.76171875,-28.80859375,-9.27734375
3,1746312969226.4688,-35.15625,-36.62109375,-30.76171875,-1.953125
4,1746312969230.375,-42.96875,-36.1328125,-29.296875,-5.859375
5,1746312969234.2812,-43.45703125,-32.71484375,-29.296875,11.23046875
6,1746312969238.1875,-31.25,-36.62109375,-34.1796875,24.90234375
7,1746312969242.0938,-33.203125,-41.9921875,-33.203125,-20.5078125
8,1746312969246,-35.15625,-41.9921875,-31.73828125,-30.2734375
9,1746312969249.9062,-33.203125,-42.48046875,-35.64453125,-1.46484375
10,1746312969253.8125,-21.97265625,-44.921875,-31.25,8.30078125
11,1746312969257.7188,-28.80859375,-39.0625,-24.4140625,-3.90625
0,1746312969261.625,-44.43359375,-37.109375,-30.76171875,-20.99609375
1,1746312969265.5312,-30.76171875,-38.0859375,-33.69140625,-19.53125
2,1746312969269.4375,-29.296875,-30.76171875,-31.25,1.953125
3,1746312969273.3438,-27.83203125,-16.6015625,-32.2265625,7.32421875
4,1746312969277.25,-27.83203125,-20.01953125,-40.0390625,-21.97265625
5,1746312969281.1562,-23.4375,-27.34375,-36.62109375,-22.4609375
6,1746312969285.0625,-20.99609375,-27.83203125,-32.2265625,-14.16015625
7,1746312969288.9688,-30.76171875,-35.15625,-35.64453125,-24.90234375
8,1746312969292.875,-34.1796875,-31.73828125,-32.2265625,-20.01953125
9,1746312969296.7812,-46.875,-30.2734375,-32.71484375,-9.27734375
10,1746312969300.6875,-47.8515625,-35.15625,-31.25,0.9765625
11,1746312969304.5938,-39.0625,-40.52734375,-31.73828125,-13.671875
0,1746312969308.5,-41.50390625,-37.109375,-31.73828125,-25.390625
1,1746312969312.4062,-47.36328125,-35.15625,-34.66796875,-33.69140625
2,1746312969316.3125,-49.31640625,-32.71484375,-41.50390625,-34.66796875
3,1746312969320.2188,-41.9921875,-28.3203125,-40.0390625,-15.625
4,1746312969324.125,-38.57421875,-29.296875,-36.62109375,-4.39453125
5,1746312969328.0312,-40.52734375,-32.71484375,-39.55078125,-4.8828125
6,1746312969331.9375,-43.9453125,-34.66796875,-29.296875,-38.57421875
7,1746312969335.8438,-36.62109375,-32.71484375,-20.01953125,-53.7109375
8,1746312969339.75,-41.9921875,-32.2265625,-22.94921875,-52.734375
9,1746312969343.6562,-69.3359375,-34.66796875,-28.80859375,-65.91796875
10,1746312969347.5625,-65.91796875,-35.64453125,-24.90234375,-62.5
11,1746312969351.4688,-71.2890625,-38.0859375,-25.87890625,-66.89453125
0,1746312969355.375,-78.61328125,-38.0859375,-29.296875,-70.3125
1,1746312969359.2812,-83.984375,-33.69140625,-27.83203125,-80.56640625
2,1746312969363.1875,-97.65625,-36.1328125,-28.80859375,-104.00390625
3,1746312969367.0938,-96.6796875,-38.57421875,-22.4609375,-112.3046875
4,1746312969371,-104.00390625,-38.0859375,-17.578125,-108.3984375
5,1746312969374.9062,-112.3046875,-33.203125,-22.94921875,-110.83984375
6,1746312969378.8125,-119.62890625,-26.3671875,-28.80859375,-130.859375
7,1746312969382.7188,-121.58203125,-30.2734375,-26.3671875,-145.01953125
8,1746312969386.625,-110.3515625,-32.71484375,-19.53125,-123.53515625
9,1746312969390.5312,-115.234375,-33.203125,-16.6015625,-115.234375
10,1746312969394.4375,-130.859375,-34.66796875,-19.04296875,-123.046875
11,1746312969398.3438,-125.9765625,-32.2265625,-24.90234375,-110.83984375
0,1746312969402.25,-114.74609375,-28.3203125,-24.4140625,-106.93359375
1,1746312969406.1562,-103.515625,-23.4375,-20.99609375,-106.4453125
2,1746312969410.0625,-98.6328125,-25.390625,-25.390625,-117.67578125
3,1746312969413.9688,-108.3984375,-27.83203125,-26.3671875,-104.98046875
4,1746312969417.875,-88.8671875,-26.85546875,-21.97265625,-64.94140625
5,1746312969421.7812,-61.5234375,-30.76171875,-21.484375,-56.15234375
6,1746312969425.6875,-47.36328125,-28.80859375,-26.85546875,-50.78125
7,1746312969429.5938,-58.10546875,-37.109375,-25.87890625,-24.90234375
8,1746312969433.5,-49.31640625,-45.41015625,-25.87890625,-15.13671875
9,1746312969437.4062,-7.8125,-39.55078125,-30.76171875,-28.80859375
10,1746312969441.3125,-16.6015625,-37.59765625,-28.80859375,-32.2265625
11,1746312969445.2188,-27.34375,-38.0859375,-29.296875,-26.3671875
0,1746312969449.125,-3.41796875,-35.15625,-32.2265625,-18.06640625
1,1746312969453.0312,7.8125,-33.69140625,-34.1796875,-2.44140625
2,1746312969456.9375,8.30078125,-34.66796875,-36.62109375,2.9296875
3,1746312969460.8438,14.6484375,-31.25,-40.0390625,-10.7421875
4,1746312969464.75,4.8828125,-30.76171875,-37.59765625,4.39453125
5,1746312969468.6562,3.90625,-31.25,-31.73828125,11.23046875
6,1746312969472.5625,33.69140625,-31.73828125,-33.69140625,-5.859375
7,1746312969476.4688,26.85546875,-37.109375,-37.109375,-1.46484375
8,1746312969480.375,2.9296875,-41.50390625,-41.015625,-9.765625
9,1746312969484.2812,-3.41796875,-41.9921875,-41.015625,1.953125
10,1746312969488.1875,6.8359375,-37.59765625,-39.55078125,15.13671875
11,1746312969492.0938,12.6953125,-32.2265625,-41.9921875,15.625
0,1746312969496,1.46484375,-34.1796875,-39.55078125,13.18359375
1,1746312969499.9062,0.9765625,-34.1796875,-36.62109375,4.8828125
2,1746312969503.8125,4.39453125,-32.71484375,-34.66796875,17.08984375
3,1746312969507.7188,-3.41796875,-40.0390625,-36.1328125,8.30078125
4,1746312969511.625,-16.11328125,-40.52734375,-41.015625,-15.625
5,1746312969515.5312,-15.625,-34.1796875,-39.0625,-7.8125
6,1746312969519.4375,-10.7421875,-33.69140625,-36.62109375,-2.9296875
7,1746312969523.3438,-9.765625,-39.55078125,-33.203125,-13.18359375
8,1746312969527.25,-0.48828125,-38.57421875,-32.2265625,-17.578125
9,1746312969531.1562,-21.484375,-39.0625,-38.0859375,-17.578125
10,1746312969535.0625,-36.62109375,-40.52734375,-42.48046875,-20.99609375
11,1746312969538.9688,-15.625,-36.1328125,-42.48046875,-18.06640625
0,1746312969542.875,-8.30078125,-34.1796875,-39.55078125,-17.578125
1,1746312969546.7812,-16.6015625,-35.64453125,-38.0859375,-28.3203125
2,1746312969550.6875,-30.2734375,-40.52734375,-39.0625,-29.78515625
3,1746312969554.5938,-21.484375,-39.0625,-40.0390625,-14.6484375
4,1746312969558.5,-20.99609375,-37.109375,-39.55078125,-16.6015625
5,1746312969562.4062,-30.2734375,-34.66796875,-38.57421875,-33.203125
6,1746312969566.3125,-39.55078125,-34.1796875,-34.1796875,-26.3671875
7,1746312969570.2188,-40.52734375,-36.62109375,-30.2734375,-7.8125
8,1746312969574.125,-31.25,-37.109375,-31.25,-0.48828125
9,1746312969578.0312,-36.1328125,-40.0390625,-35.15625,-3.90625
10,1746312969581.9375,-40.0390625,-29.296875,-37.109375,-7.8125
11,1746312969585.8438,-18.5546875,-22.94921875,-23.92578125,5.37109375
0,1746312969589.75,-7.8125,-31.73828125,-20.01953125,0.9765625
1,1746312969593.6562,-23.4375,-35.15625,-32.71484375,-9.765625
2,1746312969597.5625,-34.66796875,-34.66796875,-33.203125,-17.578125
3,1746312969601.4688,-28.3203125,-33.203125,-25.390625,-21.484375
4,1746312969605.375,-17.578125,-33.69140625,-23.92578125,-15.625
5,1746312969609.2812,-30.2734375,-30.2734375,-33.203125,-12.6953125
6,1746312969613.1875,-35.15625,-31.73828125,-36.62109375,-17.578125
7,1746312969617.0938,-26.3671875,-37.109375,-32.2265625,-34.1796875
8,1746312969621,-19.53125,-31.73828125,-28.3203125,-19.53125
9,1746312969624.9062,-30.76171875,-30.2734375,-29.296875,-21.484375
10,1746312969628.8125,-36.1328125,-36.62109375,-28.3203125,-37.109375
11,1746312969632.7188,-26.3671875,-33.69140625,-28.3203125,-23.92578125
0,1746312969636.625,-20.99609375,-29.296875,-36.62109375,-17.578125
1,1746312969640.5312,-15.13671875,-23.92578125,-34.1796875,-22.4609375
2,1746312969644.4375,-13.18359375,-25.390625,-34.66796875,-33.69140625
3,1746312969648.3438,-19.04296875,-33.203125,-35.64453125,-33.69140625
4,1746312969652.25,-18.5546875,-30.76171875,-28.3203125,-20.5078125
5,1746312969656.1562,-12.6953125,-27.83203125,-33.203125,-20.01953125
6,1746312969660.0625,-16.11328125,-33.203125,-38.0859375,-31.73828125
7,1746312969663.9688,-28.3203125,-32.2265625,-34.1796875,-35.64453125
8,1746312969667.875,-31.73828125,-34.1796875,-37.59765625,-27.34375
9,1746312969671.7812,-32.71484375,-37.59765625,-34.66796875,-22.94921875
10,1746312969675.6875,-33.203125,-37.59765625,-30.76171875,-39.0625
11,1746312969679.5938,-32.2265625,-42.96875,-34.66796875,-41.50390625
0,1746312969683.5,-37.109375,-36.62109375,-34.1796875,-25.87890625
1,1746312969687.4062,-20.99609375,-31.73828125,-29.296875,-18.06640625
2,1746312969691.3125,-20.99609375,-36.62109375,-30.2734375,-24.90234375
3,1746312969695.2188,-42.96875,-36.1328125,-33.69140625,-52.24609375
4,1746312969699.125,-40.0390625,-34.66796875,-32.71484375,-48.828125
5,1746312969703.0312,-22.4609375,-27.83203125,-32.71484375,-11.71875
6,1746312969706.9375,-22.4609375,-22.94921875,-35.64453125,-15.13671875
7,1746312969710.8438,-24.90234375,-25.390625,-35.15625,-26.85546875
8,1746312969714.75,-28.80859375,-28.80859375,-32.2265625,-4.39453125
9,1746312969718.6562,-40.52734375,-32.2265625,-34.66796875,1.953125
10,1746312969722.5625,-29.296875,-30.76171875,-34.1796875,-23.92578125
11,1746312969726.4688,-23.92578125,-30.2734375,-30.76171875,-45.8984375
0,1746312969730.375,-43.9453125,-35.64453125,-30.2734375,-41.50390625
1,1746312969734.2812,-42.48046875,-37.59765625,-32.71484375,-29.78515625
2,1746312969738.1875,-35.15625,-37.109375,-29.78515625,-25.87890625
3,1746312969742.0938,-38.0859375,-39.55078125,-32.2265625,-26.3671875
4,1746312969746,-29.78515625,-35.64453125,-30.76171875,-30.2734375
5,1746312969749.9062,-31.73828125,-25.87890625,-23.4375,-16.11328125
6,1746312969753.8125,-27.34375,-24.90234375,-30.2734375,4.39453125
7,1746312969757.7188,-27.34375,-29.296875,-31.73828125,-14.16015625
8,1746312969761.625,-41.015625,-33.203125,-36.1328125,-29.296875
9,1746312969765.5312,-37.109375,-41.015625,-33.203125,-31.25
10,1746312969769.4375,-33.69140625,-43.9453125,-27.34375,-34.66796875
11,1746312969773.3438,-32.71484375,-38.0859375,-29.78515625,-26.85546875
0,1746312969777.25,-30.2734375,-31.25,-28.3203125,-27.34375
1,1746312969781.1562,-35.64453125,-31.25,-27.83203125,-18.5546875
2,1746312969785.0625,-35.15625,-32.71484375,-29.78515625,-7.32421875
3,1746312969788.9688,-29.78515625,-31.73828125,-34.1796875,-19.53125
4,1746312969792.875,-28.3203125,-31.25,-39.0625,-19.04296875
5,1746312969796.7812,-34.66796875,-38.0859375,-35.15625,-31.73828125
6,1746312969800.6875,-32.71484375,-39.55078125,-33.69140625,-29.296875
7,1746312969804.5938,-29.78515625,-33.203125,-31.73828125,-24.90234375
8,1746312969808.5,-24.90234375,-30.2734375,-29.78515625,-36.62109375
9,1746312969812.4062,-31.25,-37.59765625,-29.296875,-27.34375
10,1746312969816.3125,-33.203125,-36.1328125,-29.78515625,-24.4140625
11,1746312969820.2188,-18.5546875,-29.78515625,-33.69140625,-18.06640625
0,1746312969824.125,-26.85546875,-30.2734375,-36.62109375,-18.06640625
1,1746312969828.0312,-32.71484375,-28.80859375,-38.0859375,-29.78515625
2,1746312969831.9375,-32.2265625,-29.78515625,-39.55078125,-43.45703125
3,1746312969835.8438,-45.8984375,-33.203125,-32.71484375,-37.59765625
4,1746312969839.75,-39.55078125,-33.203125,-25.87890625,-22.94921875
5,1746312969843.6562,-42.48046875,-39.55078125,-30.2734375,-25.87890625
6,1746312969847.5625,-50.29296875,-41.9921875,-33.69140625,-25.87890625
7,1746312969851.4688,-43.45703125,-39.0625,-34.66796875,-26.85546875
8,1746312969855.375,-37.109375,-39.0625,-40.0390625,-19.04296875
9,1746312969859.2812,-35.64453125,-36.62109375,-41.50390625,-20.99609375
10,1746312969863.1875,-46.38671875,-32.2265625,-34.1796875,-33.203125
11,1746312969867.0938,-47.36328125,-31.25,-27.83203125,-40.52734375
0,1746312969871,-36.1328125,-30.2734375,-22.94921875,-25.87890625
1,1746312969874.9062,-35.64453125,-27.34375,-32.2265625,-13.671875
2,1746312969878.8125,-43.9453125,-31.25,-41.50390625,-31.25
3,1746312969882.7188,-54.6875,-37.59765625,-29.296875,-41.50390625
4,1746312969886.625,-50.29296875,-36.62109375,-18.5546875,-42.48046875
5,1746312969890.5312,-43.9453125,-33.69140625,-24.4140625,-34.1796875
6,1746312969894.4375,-51.26953125,-35.64453125,-28.3203125,-45.41015625
7,1746312969898.3438,-56.15234375,-33.69140625,-26.85546875,-58.59375
8,1746312969902.25,-52.734375,-34.66796875,-22.4609375,-54.19921875
9,1746312969906.1562,-55.17578125,-40.0390625,-24.90234375,-57.6171875
10,1746312969910.0625,-61.03515625,-34.1796875,-27.34375,-58.59375
11,1746312969913.9688,-60.546875,-32.71484375,-27.83203125,-66.40625
0,1746312969917.875,-51.26953125,-35.15625,-26.3671875,-67.3828125
1,1746312969921.7812,-62.98828125,-30.76171875,-28.80859375,-60.05859375
2,1746312969925.6875,-77.1484375,-33.69140625,-31.25,-69.3359375
3,1746312969929.5938,-70.3125,-34.66796875,-25.390625,-91.796875
4,1746312969933.5,-71.2890625,-30.2734375,-25.390625,-70.80078125
5,1746312969937.4062,-79.58984375,-33.69140625,-21.484375,-52.24609375
6,1746312969941.3125,-86.42578125,-40.0390625,-16.6015625,-93.26171875
7,1746312969945.2188,-98.14453125,-32.71484375,-17.578125,-105.46875
8,1746312969949.125,-106.93359375,-28.3203125,-13.671875,-97.65625
9,1746312969953.0312,-97.16796875,-29.78515625,-15.13671875,-104.4921875
10,1746312969956.9375,-76.66015625,-24.4140625,-18.06640625,-104.4921875
11,1746312969960.8438,-83.0078125,-20.99609375,-14.16015625,-83.49609375
0,1746312969964.75,-109.375,-26.85546875,-7.32421875,-75.68359375
1,1746312969968.6562,-96.6796875,-35.64453125,-8.7890625,-81.0546875
2,1746312969972.5625,-71.77734375,-33.69140625,-16.11328125,-67.3828125
3,1746312969976.4688,-73.2421875,-31.73828125,-19.04296875,-61.03515625
4,1746312969980.375,-88.8671875,-33.69140625,-16.6015625,-76.66015625
5,1746312969984.2812,-89.35546875,-32.2265625,-21.484375,-79.1015625
6,1746312969988.1875,-70.3125,-36.62109375,-36.62109375,-49.8046875
7,1746312969992.0938,-59.5703125,-44.921875,-38.57421875,-41.015625
8,1746312969996,-60.05859375,-46.38671875,-30.76171875,-57.6171875
9,1746312969999.9062,-46.38671875,-41.50390625,-30.2734375,-63.96484375
10,1746312970003.8125,-29.296875,-39.0625,-33.203125,-45.8984375
11,1746312970007.7188,-12.6953125,-40.0390625,-31.25,-20.5078125
0,1746312970011.625,-2.9296875,-38.57421875,-29.78515625,-31.25
1,1746312970015.5312,-19.04296875,-36.1328125,-38.0859375,-37.59765625
2,1746312970019.4375,-23.4375,-38.0859375,-43.9453125,-12.6953125
3,1746312970023.3438,-0.9765625,-31.25,-42.48046875,10.25390625
4,1746312970027.25,11.71875,-22.94921875,-41.50390625,16.6015625
5,1746312970031.1562,-1.46484375,-24.90234375,-38.57421875,11.71875
6,1746312970035.0625,3.90625,-27.83203125,-32.71484375,6.8359375
7,1746312970038.9688,17.578125,-29.78515625,-37.109375,-0.48828125
8,1746312970042.875,-0.9765625,-31.25,-40.0390625,7.32421875
9,1746312970046.7812,-11.23046875,-35.15625,-33.69140625,2.44140625
10,1746312970050.6875,11.71875,-32.71484375,-34.1796875,8.7890625
11,1746312970054.5938,13.18359375,-29.296875,-34.1796875,13.18359375
0,1746312970058.5,-4.39453125,-31.25,-32.2265625,-2.44140625
1,1746312970062.4062,-6.8359375,-32.71484375,-37.59765625,-16.6015625
2,1746312970066.3125,-2.44140625,-37.109375,-41.015625,-11.23046875
3,1746312970070.2188,-2.9296875,-34.66796875,-39.55078125,5.37109375
4,1746312970074.125,-2.44140625,-34.66796875,-34.1796875,5.859375
5,1746312970078.0312,-12.20703125,-32.2265625,-33.69140625,-14.16015625
6,1746312970081.9375,-8.30078125,-25.87890625,-35.64453125,-0.9765625
7,1746312970085.8438,2.9296875,-26.85546875,-31.25,21.484375
8,1746312970089.75,-15.13671875,-32.71484375,-33.69140625,11.71875
9,1746312970093.6562,-18.5546875,-37.109375,-35.64453125,2.44140625
10,1746312970097.5625,-11.71875,-34.66796875,-33.69140625,-14.6484375
11,1746312970101.4688,-20.01953125,-36.1328125,-36.62109375,-22.4609375
0,1746312970105.375,-15.625,-36.1328125,-37.109375,-15.625
1,1746312970109.2812,-19.53125,-34.66796875,-39.55078125,-23.92578125
2,1746312970113.1875,-36.1328125,-35.64453125,-43.45703125,-33.203125
3,1746312970117.0938,-33.69140625,-40.52734375,-43.9453125,-19.04296875
4,1746312970121,-20.99609375,-40.0390625,-37.109375,-14.16015625
5,1746312970124.9062,-20.01953125,-32.71484375,-36.1328125,-17.08984375
6,1746312970128.8125,-19.53125,-37.59765625,-41.015625,-25.87890625
7,1746312970132.7188,-20.01953125,-41.50390625,-37.109375,-29.78515625
8,1746312970136.625,-38.0859375,-36.62109375,-39.0625,-31.73828125
9,1746312970140.5312,-33.69140625,-38.0859375,-39.0625,-16.6015625
10,1746312970144.4375,-27.83203125,-34.66796875,-31.25,-10.25390625
11,1746312970148.3438,-35.15625,-33.69140625,-34.1796875,-14.6484375
0,1746312970152.25,-17.08984375,-30.76171875,-37.109375,-8.7890625
1,1746312970156.1562,-8.7890625,-24.90234375,-29.296875,-28.3203125
2,1746312970160.0625,-17.08984375,-24.4140625,-26.85546875,-36.1328125
3,1746312970163.9688,-20.01953125,-28.3203125,-30.2734375,-27.34375
4,1746312970167.875,-24.4140625,-34.66796875,-30.2734375,-14.16015625
5,1746312970171.7812,-30.76171875,-35.64453125,-36.1328125,-15.625
6,1746312970175.6875,-36.62109375,-38.57421875,-36.62109375,-29.296875
7,1746312970179.5938,-40.52734375,-36.62109375,-32.2265625,-35.64453125
8,1746312970183.5,-20.99609375,-33.69140625,-35.64453125,-24.90234375
9,1746312970187.4062,-16.11328125,-31.73828125,-33.203125,-26.85546875
10,1746312970191.3125,-36.1328125,-34.66796875,-34.1796875,-28.80859375
11,1746312970195.2188,-36.1328125,-36.62109375,-33.69140625,-26.3671875
0,1746312970199.125,-31.73828125,-34.66796875,-31.73828125,-35.64453125
1,1746312970203.0312,-28.80859375,-33.203125,-31.25,-20.5078125
2,1746312970206.9375,-21.484375,-27.34375,-29.78515625,-27.34375
3,1746312970210.8438,-35.64453125,-22.94921875,-32.71484375,-25.87890625
4,1746312970214.75,-32.2265625,-32.2265625,-37.109375,-15.625
5,1746312970218.6562,-16.11328125,-31.73828125,-36.1328125,-24.4140625
6,1746312970222.5625,-20.99609375,-28.80859375,-32.71484375,-30.2734375
7,1746312970226.4688,-22.94921875,-28.3203125,-32.2265625,-34.66796875
8,1746312970230.375,-22.94921875,-25.87890625,-33.69140625,-42.48046875
9,1746312970234.2812,-25.87890625,-31.73828125,-38.57421875,-37.59765625
10,1746312970238.1875,-21.484375,-38.57421875,-39.55078125,-26.85546875
11,1746312970242.0938,-27.83203125,-28.80859375,-38.0859375,-38.0859375
0,1746312970246,-21.97265625,-25.390625,-35.64453125,-32.71484375
1,1746312970249.9062,-10.7421875,-28.80859375,-28.80859375,-12.6953125
2,1746312970253.8125,-12.20703125,-29.78515625,-28.3203125,-26.85546875
3,1746312970257.7188,-22.94921875,-35.64453125,-35.15625,-45.8984375
4,1746312970261.625,-34.66796875,-37.109375,-38.0859375,-41.50390625
5,1746312970265.5312,-36.62109375,-34.66796875,-38.0859375,-40.0390625
6,1746312970269.4375,-20.99609375,-32.71484375,-32.2265625,-25.87890625
7,1746312970273.3438,-16.6015625,-33.69140625,-32.71484375,-20.01953125
8,1746312970277.25,-25.390625,-26.3671875,-38.57421875,-27.34375
9,1746312970281.1562,-35.64453125,-26.85546875,-37.59765625,-24.4140625
10,1746312970285.0625,-45.41015625,-28.3203125,-35.64453125,-39.55078125
11,1746312970288.9688,-42.96875,-26.85546875,-33.203125,-46.875
0,1746312970292.875,-32.71484375,-29.296875,-37.109375,-33.69140625
1,1746312970296.7812,-44.921875,-32.2265625,-46.38671875,-38.57421875
2,1746312970300.6875,-59.08203125,-32.71484375,-40.0390625,-38.0859375
3,1746312970304.5938,-41.50390625,-39.0625,-30.2734375,-23.92578125
4,1746312970308.5,-35.15625,-40.52734375,-33.203125,-26.3671875
5,1746312970312.4062,-39.0625,-31.25,-33.69140625,-33.203125
6,1746312970316.3125,-36.62109375,-32.2265625,-33.69140625,-36.62109375
7,1746312970320.2188,-25.87890625,-34.66796875,-32.2265625,-18.5546875
8,1746312970324.125,-29.78515625,-30.2734375,-31.25,-16.6015625
9,1746312970328.0312,-43.9453125,-32.71484375,-36.1328125,-34.1796875
10,1746312970331.9375,-44.921875,-36.62109375,-38.0859375,-35.15625
11,1746312970335.8438,-37.109375,-37.59765625,-38.0859375,-20.99609375
0,1746312970339.75,-34.1796875,-41.015625,-35.64453125,-10.7421875
1,1746312970343.6562,-36.1328125,-38.57421875,-29.78515625,-44.43359375
2,1746312970347.5625,-44.43359375,-32.71484375,-29.78515625,-44.921875
3,1746312970351.4688,-38.57421875,-36.1328125,-33.69140625,-16.6015625
4,1746312970355.375,-26.3671875,-40.0390625,-34.1796875,-20.5078125
5,1746312970359.2812,-20.01953125,-36.62109375,-32.2265625,-30.2734375
6,1746312970363.1875,-28.80859375,-30.76171875,-38.57421875,-33.203125
7,1746312970367.0938,-40.0390625,-35.15625,-41.015625,-32.71484375
8,1746312970371,-35.64453125,-42.96875,-31.73828125,-23.92578125
9,1746312970374.9062,-43.45703125,-44.921875,-30.2734375,-15.13671875
10,1746312970378.8125,-44.43359375,-38.0859375,-33.203125,-31.73828125
11,1746312970382.7188,-33.69140625,-35.15625,-34.66796875,-31.73828125
0,1746312970386.625,-29.78515625,-34.1796875,-34.1796875,-10.7421875
1,1746312970390.5312,-30.2734375,-33.69140625,-33.69140625,-11.71875
2,1746312970394.4375,-28.80859375,-39.55078125,-35.64453125,-10.25390625
3,1746312970398.3438,-24.90234375,-40.52734375,-37.109375,-15.13671875
4,1746312970402.25,-35.64453125,-34.1796875,-36.1328125,-28.3203125
5,1746312970406.1562,-49.8046875,-38.57421875,-39.55078125,-24.90234375
6,1746312970410.0625,-30.2734375,-42.96875,-36.62109375,-8.30078125
7,1746312970413.9688,-29.78515625,-39.55078125,-33.203125,-18.06640625
8,1746312970417.875,-30.76171875,-33.203125,-32.71484375,-42.48046875
9,1746312970421.7812,-16.11328125,-29.78515625,-26.3671875,-14.6484375
10,1746312970425.6875,-17.08984375,-32.71484375,-27.34375,-1.953125
11,1746312970429.5938,-27.83203125,-28.80859375,-31.73828125,-36.62109375
0,1746312970433.5,-34.1796875,-30.2734375,-32.71484375,-30.2734375
1,1746312970437.4062,-40.0390625,-36.62109375,-37.109375,-4.39453125
2,1746312970441.3125,-33.203125,-34.66796875,-37.59765625,-32.71484375
3,1746312970445.2188,-36.1328125,-33.203125,-36.1328125,-35.64453125
4,1746312970449.125,-43.45703125,-33.69140625,-33.203125,-9.27734375
5,1746312970453.0312,-34.66796875,-28.3203125,-27.34375,2.44140625
6,1746312970456.9375,-25.87890625,-30.2734375,-30.2734375,1.46484375
7,1746312970460.8438,-28.3203125,-36.1328125,-33.203125,-29.296875
8,1746312970464.75,-44.921875,-32.71484375,-27.83203125,-28.3203125
9,1746312970468.6562,-27.34375,-33.69140625,-23.4375,-7.8125
10,1746312970472.5625,-28.3203125,-37.109375,-24.90234375,-30.76171875
11,1746312970476.4688,-34.66796875,-37.109375,-25.87890625,-27.83203125
0,1746312970480.375,-21.97265625,-35.15625,-24.4140625,-24.90234375
1,1746312970484.2812,-25.87890625,-33.69140625,-29.78515625,-33.203125
2,1746312970488.1875,-23.92578125,-34.1796875,-31.73828125,-29.296875
3,1746312970492.0938,-31.73828125,-38.0859375,-33.203125,-28.3203125
4,1746312970496,-44.921875,-41.9921875,-39.0625,-36.62109375
5,1746312970499.9062,-48.828125,-36.62109375,-37.59765625,-36.1328125
6,1746312970503.8125,-43.9453125,-36.62109375,-38.0859375,-31.73828125
7,1746312970507.7188,-33.69140625,-35.64453125,-38.57421875,-34.1796875
8,1746312970511.625,-38.57421875,-37.109375,-38.57421875,-37.59765625
9,1746312970515.5312,-42.96875,-36.1328125,-33.69140625,-39.55078125
10,1746312970519.4375,-25.87890625,-25.87890625,-23.92578125,-37.59765625
11,1746312970523.3438,-20.99609375,-30.76171875,-27.34375,-27.34375
0,1746312970527.25,-33.69140625,-33.203125,-32.2265625,-16.11328125
1,1746312970531.1562,-45.41015625,-30.76171875,-35.15625,-1.953125
2,1746312970535.0625,-35.64453125,-34.1796875,-32.2265625,3.90625
3,1746312970538.9688,-30.2734375,-38.57421875,-33.203125,4.8828125
4,1746312970542.875,-58.10546875,-41.50390625,-37.59765625,8.7890625
5,1746312970546.7812,-58.59375,-39.55078125,-30.76171875,7.32421875
6,1746312970550.6875,-35.64453125,-38.0859375,-30.76171875,3.90625
7,1746312970554.5938,-31.73828125,-35.15625,-34.66796875,-4.8828125
8,1746312970558.5,-31.25,-31.73828125,-26.85546875,15.13671875
9,1746312970562.4062,-39.0625,-32.71484375,-26.3671875,4.8828125
10,1746312970566.3125,-47.36328125,-35.64453125,-36.1328125,-19.53125
11,1746312970570.2188,-36.1328125,-37.59765625,-38.0859375,9.27734375
0,1746312970574.125,-30.76171875,-35.15625,-37.59765625,-19.04296875
1,1746312970578.0312,-39.55078125,-35.64453125,-35.64453125,-36.1328125
2,1746312970581.9375,-38.0859375,-34.1796875,-30.2734375,-7.8125
3,1746312970585.8438,-26.3671875,-33.203125,-34.1796875,-21.97265625
4,1746312970589.75,-24.90234375,-32.2265625,-42.48046875,-28.3203125
5,1746312970593.6562,-24.90234375,-30.2734375,-39.0625,-27.83203125
6,1746312970597.5625,-30.76171875,-34.66796875,-31.25,-40.0390625
7,1746312970601.4688,-30.76171875,-39.0625,-26.3671875,-41.015625
8,1746312970605.375,-41.50390625,-37.109375,-27.83203125,-39.55078125
9,1746312970609.2812,-51.7578125,-33.203125,-28.80859375,-55.17578125
10,1746312970613.1875,-40.0390625,-33.203125,-28.3203125,-63.4765625
11,1746312970617.0938,-39.55078125,-33.203125,-29.296875,-52.734375
0,1746312970621,-35.64453125,-30.76171875,-28.80859375,-56.640625
1,1746312970624.9062,-36.62109375,-28.80859375,-32.2265625,-72.265625
2,1746312970628.8125,-32.71484375,-29.296875,-35.64453125,-85.9375
3,1746312970632.7188,-32.71484375,-28.3203125,-37.109375,-88.37890625
4,1746312970636.625,-39.0625,-27.83203125,-35.64453125,-82.51953125
5,1746312970640.5312,-40.52734375,-26.3671875,-32.2265625,-75.68359375
6,1746312970644.4375,-41.015625,-30.2734375,-30.2734375,-44.921875
7,1746312970648.3438,-41.9921875,-27.83203125,-32.2265625,-53.7109375
8,1746312970652.25,-35.15625,-27.83203125,-30.76171875,-90.8203125
9,1746312970656.1562,-30.2734375,-34.66796875,-30.76171875,-89.35546875
10,1746312970660.0625,-34.66796875,-30.2734375,-34.66796875,-72.75390625
11,1746312970663.9688,-47.8515625,-25.87890625,-34.1796875,-67.3828125
0,1746312970667.875,-39.55078125,-28.80859375,-34.66796875,-70.3125
1,1746312970671.7812,-22.4609375,-24.4140625,-34.1796875,-58.10546875
2,1746312970675.6875,-21.97265625,-24.4140625,-34.1796875,-53.22265625
3,1746312970679.5938,-32.2265625,-30.2734375,-30.2734375,-64.94140625
4,1746312970683.5,-43.45703125,-34.1796875,-31.25,-65.4296875
5,1746312970687.4062,-37.59765625,-36.1328125,-35.15625,-60.05859375
6,1746312970691.3125,-36.62109375,-36.62109375,-35.64453125,-56.15234375
7,1746312970695.2188,-34.1796875,-38.0859375,-31.73828125,-60.05859375
8,1746312970699.125,-23.4375,-39.0625,-35.64453125,-64.94140625
9,1746312970703.0312,-42.96875,-39.55078125,-40.0390625,-62.01171875
10,1746312970706.9375,-51.7578125,-37.109375,-34.1796875,-48.828125
11,1746312970710.8438,-34.1796875,-34.66796875,-34.66796875,-55.17578125
0,1746312970714.75,-31.73828125,-30.76171875,-37.109375,-75.1953125
1,1746312970718.6562,-35.15625,-34.1796875,-37.109375,-53.22265625
2,1746312970722.5625,-26.85546875,-31.25,-31.73828125,-26.3671875
3,1746312970726.4688,-38.57421875,-26.3671875,-31.25,-42.48046875
4,1746312970730.375,-53.22265625,-30.76171875,-34.66796875,-73.73046875
5,1746312970734.2812,-49.31640625,-30.76171875,-32.2265625,-77.1484375
6,1746312970738.1875,-52.24609375,-29.296875,-31.73828125,-58.10546875
7,1746312970742.0938,-52.24609375,-29.296875,-34.66796875,-58.59375
8,1746312970746,-50.78125,-28.80859375,-36.1328125,-75.68359375
9,1746312970749.9062,-48.828125,-29.296875,-29.296875,-75.68359375
10,1746312970753.8125,-44.921875,-25.87890625,-30.2734375,-67.3828125
11,1746312970757.7188,-57.6171875,-24.90234375,-29.296875,-76.171875
0,1746312970761.625,-75.68359375,-26.3671875,-18.5546875,-78.61328125
1,1746312970765.5312,-71.2890625,-19.04296875,-14.6484375,-74.70703125
2,1746312970769.4375,-78.125,-17.578125,-15.13671875,-91.30859375
3,1746312970773.3438,-103.515625,-25.87890625,-18.5546875,-88.8671875
4,1746312970777.25,-112.3046875,-35.15625,-17.08984375,-100.09765625
5,1746312970781.1562,-129.8828125,-36.1328125,-12.6953125,-123.046875
6,1746312970785.0625,-125.48828125,-38.0859375,-18.06640625,-118.1640625
7,1746312970788.9688,-112.79296875,-37.59765625,-19.04296875,-120.60546875
8,1746312970792.875,-128.90625,-38.57421875,-15.625,-135.25390625
9,1746312970796.7812,-141.11328125,-41.50390625,-14.6484375,-139.16015625
10,1746312970800.6875,-139.16015625,-38.0859375,-12.20703125,-118.65234375
11,1746312970804.5938,-132.8125,-33.69140625,-17.578125,-119.140625
0,1746312970808.5,-133.7890625,-39.0625,-21.97265625,-135.25390625
1,1746312970812.4062,-129.39453125,-41.015625,-18.06640625,-138.671875
2,1746312970816.3125,-118.1640625,-38.0859375,-15.625,-138.671875
3,1746312970820.2188,-119.140625,-41.50390625,-16.6015625,-104.4921875
4,1746312970824.125,-118.65234375,-41.9921875,-20.5078125,-85.9375
5,1746312970828.0312,-109.86328125,-33.203125,-19.53125,-87.890625
6,1746312970831.9375,-96.19140625,-30.2734375,-16.11328125,-79.58984375
7,1746312970835.8438,-66.40625,-29.78515625,-27.83203125,-67.3828125
8,1746312970839.75,-61.03515625,-28.80859375,-37.59765625,-67.87109375
9,1746312970843.6562,-74.70703125,-36.1328125,-25.87890625,-68.359375
10,1746312970847.5625,-54.19921875,-36.1328125,-16.11328125,-49.8046875
11,1746312970851.4688,-33.203125,-34.1796875,-20.99609375,-42.48046875
0,1746312970855.375,-20.5078125,-31.73828125,-26.85546875,-39.55078125
1,1746312970859.2812,-9.27734375,-32.71484375,-31.25,-23.4375
2,1746312970863.1875,-5.37109375,-33.69140625,-37.109375,-17.578125
3,1746312970867.0938,-7.8125,-31.25,-39.55078125,-39.55078125
4,1746312970871,0.9765625,-40.0390625,-36.62109375,-3.41796875
5,1746312970874.9062,9.27734375,-41.015625,-36.62109375,38.57421875
6,1746312970878.8125,9.27734375,-34.1796875,-37.109375,14.16015625
7,1746312970882.7188,12.20703125,-34.66796875,-36.1328125,0.9765625
8,1746312970886.625,26.85546875,-30.76171875,-38.0859375,11.71875
9,1746312970890.5312,29.296875,-24.90234375,-36.1328125,7.32421875
10,1746312970894.4375,24.4140625,-25.390625,-36.62109375,8.7890625
11,1746312970898.3438,33.69140625,-27.34375,-36.62109375,13.18359375
0,1746312970902.25,27.83203125,-26.85546875,-36.62109375,12.20703125
1,1746312970906.1562,23.92578125,-28.3203125,-36.1328125,11.71875
2,1746312970910.0625,15.13671875,-36.62109375,-36.1328125,0.9765625
3,1746312970913.9688,8.30078125,-34.1796875,-33.203125,-5.37109375
4,1746312970917.875,14.6484375,-29.296875,-30.76171875,-9.27734375
5,1746312970921.7812,18.06640625,-32.71484375,-35.64453125,12.20703125
6,1746312970925.6875,19.04296875,-34.66796875,-37.109375,26.85546875
7,1746312970929.5938,18.5546875,-35.64453125,-40.0390625,-7.8125
8,1746312970933.5,15.13671875,-32.71484375,-39.0625,-21.97265625
9,1746312970937.4062,-3.41796875,-29.78515625,-34.66796875,-11.23046875
10,1746312970941.3125,-7.8125,-33.203125,-37.109375,-1.46484375
11,1746312970945.2188,-11.71875,-38.0859375,-41.015625,-18.5546875
0,1746312970949.125,-14.16015625,-43.45703125,-39.0625,-27.83203125
1,1746312970953.0312,-12.20703125,-41.9921875,-37.59765625,-1.46484375
2,1746312970956.9375,-17.08984375,-37.59765625,-42.48046875,-4.39453125
3,1746312970960.8438,-23.4375,-39.55078125,-43.45703125,-18.5546875
4,1746312970964.75,-13.671875,-40.52734375,-51.26953125,-19.53125
5,1746312970968.6562,-4.8828125,-36.1328125,-45.8984375,-21.97265625
6,1746312970972.5625,-7.8125,-38.0859375,-32.2265625,-24.4140625
7,1746312970976.4688,-7.8125,-39.0625,-32.71484375,-23.92578125
8,1746312970980.375,-10.25390625,-39.55078125,-33.203125,-17.578125
9,1746312970984.2812,-7.8125,-38.57421875,-35.15625,-20.5078125
10,1746312970988.1875,-9.27734375,-34.1796875,-39.55078125,-17.578125
11,1746312970992.0938,-14.6484375,-33.203125,-41.015625,-28.3203125
0,1746312970996,3.90625,-31.73828125,-41.50390625,-37.109375
1,1746312970999.9062,-15.625,-30.2734375,-41.015625,-35.64453125
2,1746312971003.8125,-41.9921875,-34.66796875,-37.59765625,-19.04296875
3,1746312971007.7188,-22.4609375,-36.1328125,-36.62109375,0.9765625
4,1746312971011.625,-15.625,-34.66796875,-40.0390625,-25.390625
5,1746312971015.5312,-22.94921875,-34.1796875,-38.0859375,-52.734375
6,1746312971019.4375,-17.578125,-33.203125,-34.1796875,-40.52734375
7,1746312971023.3438,-10.25390625,-33.69140625,-38.0859375,-28.80859375
8,1746312971027.25,-17.578125,-30.76171875,-41.9921875,-41.015625
9,1746312971031.1562,-20.01953125,-31.25,-34.1796875,-37.59765625
10,1746312971035.0625,-16.6015625,-30.76171875,-29.78515625,-27.34375
11,1746312971038.9688,-20.99609375,-28.3203125,-30.2734375,-11.23046875
0,1746312971042.875,-32.71484375,-33.203125,-30.76171875,-18.5546875
1,1746312971046.7812,-40.0390625,-36.62109375,-33.69140625,-26.85546875
2,1746312971050.6875,-41.015625,-29.78515625,-40.0390625,-10.25390625
3,1746312971054.5938,-36.62109375,-28.80859375,-41.9921875,-22.4609375
4,1746312971058.5,-43.9453125,-34.1796875,-37.59765625,-43.9453125
5,1746312971062.4062,-43.45703125,-31.25,-37.109375,-43.9453125
6,1746312971066.3125,-22.4609375,-27.34375,-37.109375,-25.87890625
7,1746312971070.2188,-15.13671875,-31.25,-33.69140625,-22.4609375
8,1746312971074.125,-28.3203125,-34.1796875,-33.203125,-31.25
9,1746312971078.0312,-30.2734375,-35.64453125,-30.76171875,-22.4609375
10,1746312971081.9375,-35.64453125,-35.15625,-39.0625,-26.85546875
11,1746312971085.8438,-37.109375,-33.203125,-41.50390625,-20.5078125
0,1746312971089.75,-35.15625,-38.0859375,-37.109375,-20.5078125
1,1746312971093.6562,-45.8984375,-42.48046875,-39.0625,-45.8984375
2,1746312971097.5625,-37.109375,-35.15625,-36.62109375,-56.640625
3,1746312971101.4688,-42.96875,-31.25,-30.76171875,-30.2734375
4,1746312971105.375,-40.0390625,-34.66796875,-28.3203125,-12.6953125
5,1746312971109.2812,-36.1328125,-32.71484375,-28.80859375,-28.3203125
6,1746312971113.1875,-47.8515625,-27.83203125,-29.296875,-27.83203125
7,1746312971117.0938,-36.1328125,-30.76171875,-28.80859375,-7.32421875
8,1746312971121,-15.13671875,-34.66796875,-29.78515625,-14.6484375
9,1746312971124.9062,-20.5078125,-32.2265625,-29.296875,-36.62109375
10,1746312971128.8125,-39.55078125,-30.2734375,-35.15625,-50.29296875
11,1746312971132.7188,-40.0390625,-26.85546875,-31.25,-36.62109375
0,1746312971136.625,-28.3203125,-22.94921875,-26.3671875,-22.4609375
1,1746312971140.5312,-16.6015625,-24.90234375,-25.390625,-21.97265625
2,1746312971144.4375,-17.578125,-31.25,-23.92578125,-23.4375
3,1746312971148.3438,-25.87890625,-30.76171875,-28.3203125,-29.296875
4,1746312971152.25,-29.296875,-30.76171875,-30.2734375,-10.7421875
5,1746312971156.1562,-30.2734375,-28.3203125,-34.1796875,-20.99609375
6,1746312971160.0625,-25.87890625,-26.85546875,-38.57421875,-25.390625
7,1746312971163.9688,-23.4375,-32.71484375,-33.203125,-24.90234375
8,1746312971167.875,-25.390625,-36.62109375,-28.80859375,-33.203125
9,1746312971171.7812,-31.73828125,-35.64453125,-33.69140625,-25.87890625
10,1746312971175.6875,-26.85546875,-34.1796875,-37.109375,-22.4609375
11,1746312971179.5938,-36.62109375,-31.73828125,-38.57421875,-34.66796875
0,1746312971183.5,-46.875,-30.76171875,-37.109375,-32.71484375
1,1746312971187.4062,-41.015625,-35.15625,-37.59765625,-17.578125
2,1746312971191.3125,-37.59765625,-35.15625,-39.0625,-40.0390625
3,1746312971195.2188,-51.26953125,-36.1328125,-38.0859375,-39.55078125
4,1746312971199.125,-58.59375,-36.1328125,-37.59765625,-22.4609375
5,1746312971203.0312,-34.66796875,-31.73828125,-34.1796875,-31.25
6,1746312971206.9375,-32.2265625,-37.109375,-36.1328125,-23.92578125
7,1746312971210.8438,-36.62109375,-43.9453125,-39.55078125,-39.55078125
8,1746312971214.75,-36.1328125,-43.9453125,-42.96875,-54.6875
9,1746312971218.6562,-33.203125,-40.52734375,-43.9453125,-39.0625
10,1746312971222.5625,-29.78515625,-38.57421875,-40.0390625,-40.0390625
11,1746312971226.4688,-36.62109375,-36.1328125,-37.59765625,-46.875
0,1746312971230.375,-44.921875,-37.59765625,-36.62109375,-63.96484375
1,1746312971234.2812,-51.26953125,-32.2265625,-32.71484375,-44.921875
2,1746312971238.1875,-46.38671875,-27.34375,-31.25,-8.7890625
3,1746312971242.0938,-32.71484375,-35.64453125,-33.203125,-20.01953125
4,1746312971246,-35.15625,-36.62109375,-33.69140625,-37.109375
5,1746312971249.9062,-37.59765625,-29.78515625,-37.109375,-43.45703125
6,1746312971253.8125,-23.92578125,-32.71484375,-32.71484375,-45.8984375
7,1746312971257.7188,-22.4609375,-36.1328125,-33.203125,-38.57421875
8,1746312971261.625,-31.25,-30.76171875,-37.59765625,-21.484375
9,1746312971265.5312,-37.59765625,-29.296875,-35.64453125,-20.01953125
10,1746312971269.4375,-39.0625,-32.2265625,-36.1328125,-41.015625
11,1746312971273.3438,-37.109375,-36.62109375,-38.0859375,-48.828125
0,1746312971277.25,-42.48046875,-40.52734375,-35.64453125,-46.38671875
1,1746312971281.1562,-36.62109375,-40.0390625,-28.80859375,-46.38671875
2,1746312971285.0625,-26.3671875,-35.15625,-25.87890625,-19.04296875
3,1746312971288.9688,-21.484375,-36.1328125,-31.73828125,-20.99609375
4,1746312971292.875,-14.6484375,-40.52734375,-34.1796875,-45.8984375
5,1746312971296.7812,-27.34375,-38.57421875,-26.3671875,-42.96875
6,1746312971300.6875,-33.69140625,-34.1796875,-24.4140625,-34.1796875
7,1746312971304.5938,-30.2734375,-30.2734375,-28.3203125,-28.3203125
8,1746312971308.5,-18.06640625,-23.4375,-32.2265625,-25.390625
9,1746312971312.4062,-34.1796875,-21.97265625,-33.203125,-41.015625
10,1746312971316.3125,-59.5703125,-25.87890625,-29.296875,-38.57421875
11,1746312971320.2188,-24.90234375,-26.85546875,-26.3671875,-28.80859375
0,1746312971324.125,-21.484375,-28.3203125,-31.25,-31.25
1,1746312971328.0312,-41.015625,-30.76171875,-30.2734375,-30.2734375
2,1746312971331.9375,-21.484375,-38.57421875,-28.80859375,-42.96875
3,1746312971335.8438,-26.3671875,-45.41015625,-33.203125,-51.26953125
4,1746312971339.75,-36.62109375,-31.73828125,-33.203125,-37.109375
5,1746312971343.6562,-41.9921875,-22.4609375,-41.015625,-38.0859375
6,1746312971347.5625,-80.56640625,-26.3671875,-40.0390625,-54.6875
7,1746312971351.4688,-59.08203125,-27.34375,-29.78515625,-54.19921875
8,1746312971355.375,-15.13671875,-23.92578125,-25.87890625,-48.828125
9,1746312971359.2812,-45.41015625,-21.97265625,-27.83203125,-41.9921875
10,1746312971363.1875,-76.66015625,-20.99609375,-31.73828125,-31.73828125
11,1746312971367.0938,-27.34375,-28.3203125,-30.76171875,-38.57421875
0,1746312971371,-26.3671875,-35.15625,-32.71484375,-48.33984375
1,1746312971374.9062,-51.26953125,-32.2265625,-42.96875,-43.45703125
2,1746312971378.8125,-46.38671875,-29.78515625,-37.109375,-49.31640625
3,1746312971382.7188,-33.203125,-33.203125,-31.25,-61.5234375
4,1746312971386.625,-27.34375,-28.80859375,-36.1328125,-36.1328125
5,1746312971390.5312,-31.25,-23.4375,-33.203125,-32.2265625
6,1746312971394.4375,-34.66796875,-28.80859375,-36.1328125,-58.59375
7,1746312971398.3438,-36.1328125,-30.76171875,-36.62109375,-65.4296875
8,1746312971402.25,-40.0390625,-32.2265625,-29.78515625,-50.78125
9,1746312971406.1562,-32.71484375,-34.1796875,-27.34375,-40.0390625
10,1746312971410.0625,-26.85546875,-31.73828125,-27.34375,-36.62109375
11,1746312971413.9688,-31.25,-28.80859375,-28.3203125,-25.390625
0,1746312971417.875,-39.55078125,-28.3203125,-32.2265625,-41.50390625
1,1746312971421.7812,-28.80859375,-25.87890625,-34.1796875,-55.6640625
2,1746312971425.6875,-25.87890625,-26.3671875,-35.64453125,-49.8046875
3,1746312971429.5938,-38.0859375,-31.25,-37.109375,-52.24609375
4,1746312971433.5,-41.9921875,-33.203125,-33.69140625,-44.43359375
5,1746312971437.4062,-30.2734375,-31.25,-30.76171875,-34.66796875
6,1746312971441.3125,-27.83203125,-30.2734375,-29.296875,-55.17578125
7,1746312971445.2188,-40.52734375,-34.1796875,-32.2265625,-65.4296875
8,1746312971449.125,-23.4375,-31.73828125,-36.62109375,-47.36328125
9,1746312971453.0312,-17.08984375,-29.78515625,-35.15625,-38.0859375
10,1746312971456.9375,-42.96875,-29.78515625,-37.59765625,-47.8515625
11,1746312971460.8438,-31.73828125,-30.2734375,-35.64453125,-47.8515625
0,1746312971464.75,-32.2265625,-32.71484375,-27.83203125,-38.0859375
1,1746312971468.6562,-25.87890625,-27.34375,-30.2734375,-27.83203125
2,1746312971472.5625,-15.13671875,-23.4375,-31.73828125,-24.90234375
3,1746312971476.4688,-33.203125,-30.2734375,-30.2734375,-44.921875
4,1746312971480.375,-52.24609375,-37.59765625,-34.1796875,-73.73046875
5,1746312971484.2812,-48.33984375,-27.83203125,-28.3203125,-59.5703125
6,1746312971488.1875,-19.04296875,-23.92578125,-22.4609375,-28.3203125
7,1746312971492.0938,-27.34375,-30.76171875,-25.87890625,-48.33984375
8,1746312971496,-47.8515625,-35.15625,-28.80859375,-86.9140625
9,1746312971499.9062,-42.96875,-29.296875,-26.85546875,-72.75390625
10,1746312971503.8125,-34.66796875,-22.4609375,-25.390625,-61.5234375
11,1746312971507.7188,-24.4140625,-27.83203125,-27.83203125,-72.265625
0,1746312971511.625,-19.04296875,-30.76171875,-30.76171875,-68.359375
1,1746312971515.5312,-42.48046875,-31.73828125,-30.76171875,-63.96484375
2,1746312971519.4375,-43.45703125,-31.25,-28.3203125,-62.98828125
3,1746312971523.3438,-29.78515625,-33.203125,-30.76171875,-52.734375
4,1746312971527.25,-30.2734375,-38.0859375,-37.109375,-53.22265625
5,1746312971531.1562,-29.296875,-31.73828125,-36.1328125,-63.96484375
6,1746312971535.0625,-23.92578125,-32.71484375,-25.390625,-61.03515625
7,1746312971538.9688,-25.390625,-37.59765625,-22.4609375,-51.26953125
8,1746312971542.875,-27.83203125,-33.69140625,-28.80859375,-42.96875
9,1746312971546.7812,-50.78125,-35.15625,-30.2734375,-44.43359375
10,1746312971550.6875,-30.76171875,-32.71484375,-30.2734375,-52.24609375
11,1746312971554.5938,-19.53125,-32.71484375,-34.66796875,-50.78125
0,1746312971558.5,-36.62109375,-29.78515625,-32.2265625,-48.33984375
1,1746312971562.4062,-34.66796875,-22.4609375,-30.2734375,-64.94140625
2,1746312971566.3125,-38.57421875,-29.78515625,-34.66796875,-62.01171875
3,1746312971570.2188,-25.390625,-33.203125,-33.203125,-45.8984375
4,1746312971574.125,-20.5078125,-31.25,-35.15625,-47.8515625
5,1746312971578.0312,-41.9921875,-37.59765625,-40.0390625,-56.15234375
6,1746312971581.9375,-35.15625,-37.59765625,-34.66796875,-55.6640625
7,1746312971585.8438,-27.83203125,-30.76171875,-37.109375,-47.36328125
8,1746312971589.75,-18.06640625,-27.83203125,-43.45703125,-55.17578125
9,1746312971593.6562,-27.83203125,-31.25,-38.57421875,-56.15234375
10,1746312971597.5625,-50.29296875,-37.59765625,-34.1796875,-48.828125
11,1746312971601.4688,-32.2265625,-34.66796875,-32.2265625,-56.640625
0,1746312971605.375,-35.15625,-26.85546875,-30.2734375,-64.453125
1,1746312971609.2812,-41.50390625,-27.83203125,-30.2734375,-66.40625
2,1746312971613.1875,-35.15625,-36.1328125,-33.203125,-77.1484375
3,1746312971617.0938,-24.90234375,-39.55078125,-38.0859375,-71.77734375
4,1746312971621,-23.4375,-31.25,-37.109375,-50.29296875
5,1746312971624.9062,-41.9921875,-25.87890625,-30.76171875,-53.22265625
6,1746312971628.8125,-39.0625,-26.3671875,-28.3203125,-61.03515625
7,1746312971632.7188,-32.2265625,-33.203125,-28.3203125,-45.8984375
8,1746312971636.625,-35.15625,-37.59765625,-29.296875,-45.8984375
9,1746312971640.5312,-19.53125,-31.73828125,-33.69140625,-44.921875
10,1746312971644.4375,-19.53125,-27.83203125,-31.25,-43.9453125
11,1746312971648.3438,-35.64453125,-29.78515625,-28.3203125,-41.50390625
0,1746312971652.25,-35.64453125,-30.76171875,-34.1796875,-43.9453125
1,1746312971656.1562,-38.57421875,-25.390625,-34.66796875,-47.36328125
2,1746312971660.0625,-41.50390625,-27.34375,-32.2265625,-49.8046875
3,1746312971663.9688,-36.1328125,-33.203125,-33.203125,-56.640625
4,1746312971667.875,-42.48046875,-32.2265625,-33.203125,-43.45703125
5,1746312971671.7812,-35.64453125,-27.83203125,-32.2265625,-22.94921875
6,1746312971675.6875,-30.76171875,-29.296875,-30.2734375,-41.50390625
7,1746312971679.5938,-56.640625,-38.57421875,-32.71484375,-58.10546875
8,1746312971683.5,-52.24609375,-40.0390625,-36.1328125,-48.828125
9,1746312971687.4062,-37.59765625,-36.62109375,-34.1796875,-42.48046875
10,1746312971691.3125,-46.875,-33.69140625,-35.64453125,-41.015625
11,1746312971695.2188,-37.109375,-35.15625,-36.62109375,-47.8515625
0,1746312971699.125,-34.66796875,-34.66796875,-34.66796875,-55.17578125
1,1746312971703.0312,-35.15625,-28.3203125,-34.1796875,-40.0390625
2,1746312971706.9375,-23.92578125,-26.85546875,-31.25,-40.52734375
3,1746312971710.8438,-36.62109375,-31.73828125,-27.34375,-51.7578125
4,1746312971714.75,-39.55078125,-30.76171875,-24.90234375,-56.640625
5,1746312971718.6562,-18.06640625,-26.85546875,-23.92578125,-35.15625
6,1746312971722.5625,-16.6015625,-29.78515625,-25.87890625,-33.203125
7,1746312971726.4688,-22.4609375,-33.203125,-31.73828125,-50.29296875
8,1746312971730.375,-40.0390625,-30.76171875,-30.76171875,-45.41015625
9,1746312971734.2812,-35.64453125,-29.78515625,-29.296875,-40.0390625
10,1746312971738.1875,-9.765625,-28.3203125,-28.80859375,-33.69140625
11,1746312971742.0938,-33.69140625,-29.78515625,-26.85546875,-46.875
0,1746312971746,-51.26953125,-34.1796875,-27.83203125,-56.15234375
1,1746312971749.9062,-38.57421875,-34.66796875,-33.203125,-52.24609375
2,1746312971753.8125,-22.94921875,-32.71484375,-35.15625,-44.921875
3,1746312971757.7188,-10.25390625,-29.296875,-36.1328125,-16.6015625
4,1746312971761.625,-24.90234375,-29.78515625,-35.64453125,-30.2734375
5,1746312971765.5312,-33.203125,-28.80859375,-28.80859375,-60.546875
6,1746312971769.4375,-23.92578125,-26.3671875,-27.83203125,-62.01171875
7,1746312971773.3438,-26.3671875,-29.78515625,-31.73828125,-60.546875
8,1746312971777.25,-19.04296875,-33.203125,-30.2734375,-36.62109375
9,1746312971781.1562,-25.390625,-29.78515625,-29.296875,-31.25
10,1746312971785.0625,-39.55078125,-25.87890625,-31.25,-38.57421875
11,1746312971788.9688,-37.59765625,-27.34375,-29.78515625,-36.62109375
0,1746312971792.875,-52.734375,-28.3203125,-32.2265625,-38.0859375
1,1746312971796.7812,-60.05859375,-38.57421875,-34.66796875,-53.7109375
2,1746312971800.6875,-54.6875,-40.0390625,-34.1796875,-60.05859375
3,1746312971804.5938,-50.78125,-31.25,-31.25,-44.921875
4,1746312971808.5,-45.41015625,-32.71484375,-26.85546875,-45.8984375
5,1746312971812.4062,-42.96875,-29.296875,-30.76171875,-42.96875
6,1746312971816.3125,-29.78515625,-30.76171875,-27.34375,-39.0625
7,1746312971820.2188,-26.3671875,-35.64453125,-25.390625,-48.33984375
8,1746312971824.125,-28.80859375,-36.1328125,-29.78515625,-27.83203125
9,1746312971828.0312,-33.203125,-35.64453125,-37.59765625,-17.08984375
10,1746312971831.9375,-36.1328125,-31.73828125,-38.57421875,-33.69140625
11,1746312971835.8438,-31.73828125,-35.15625,-26.3671875,-36.62109375
0,1746312971839.75,-41.9921875,-37.109375,-25.87890625,-41.50390625
1,1746312971843.6562,-47.36328125,-31.25,-25.390625,-43.9453125
2,1746312971847.5625,-41.015625,-30.76171875,-24.90234375,-38.57421875
3,1746312971851.4688,-34.1796875,-27.34375,-29.296875,-40.52734375
4,1746312971855.375,-27.34375,-24.4140625,-28.80859375,-19.04296875
5,1746312971859.2812,-27.34375,-25.390625,-27.83203125,-27.34375
6,1746312971863.1875,-25.87890625,-30.76171875,-24.90234375,-38.0859375
7,1746312971867.0938,-20.01953125,-34.1796875,-24.90234375,-26.3671875
8,1746312971871,-10.25390625,-28.3203125,-32.71484375,-23.4375
9,1746312971874.9062,-21.97265625,-26.85546875,-38.57421875,-42.48046875
10,1746312971878.8125,-52.734375,-30.2734375,-38.57421875,-47.8515625
11,1746312971882.7188,-56.15234375,-29.296875,-37.109375,-45.8984375
0,1746312971886.625,-44.921875,-26.3671875,-35.64453125,-46.875
1,1746312971890.5312,-48.828125,-34.1796875,-32.2265625,-45.8984375
2,1746312971894.4375,-53.7109375,-35.64453125,-33.203125,-55.6640625
3,1746312971898.3438,-57.6171875,-39.0625,-37.109375,-62.01171875
4,1746312971902.25,-48.33984375,-37.59765625,-37.59765625,-47.36328125
5,1746312971906.1562,-36.62109375,-33.203125,-30.76171875,-30.2734375
6,1746312971910.0625,-36.62109375,-37.59765625,-29.296875,-37.59765625
7,1746312971913.9688,-38.57421875,-30.76171875,-34.66796875,-29.296875
8,1746312971917.875,-22.4609375,-23.92578125,-34.1796875,-16.6015625
9,1746312971921.7812,-18.06640625,-29.78515625,-27.34375,-33.69140625
10,1746312971925.6875,-34.66796875,-31.25,-26.85546875,-42.48046875
11,1746312971929.5938,-40.0390625,-33.203125,-33.203125,-57.6171875
0,1746312971933.5,-30.2734375,-36.1328125,-31.73828125,-57.12890625
1,1746312971937.4062,-19.04296875,-34.1796875,-27.83203125,-26.3671875
2,1746312971941.3125,-24.4140625,-34.66796875,-32.71484375,-39.0625
3,1746312971945.2188,-37.109375,-33.203125,-35.15625,-62.98828125
4,1746312971949.125,-37.109375,-29.78515625,-36.1328125,-36.1328125
5,1746312971953.0312,-26.85546875,-26.3671875,-36.62109375,-36.1328125
6,1746312971956.9375,-31.25,-29.78515625,-36.62109375,-49.8046875
7,1746312971960.8438,-59.08203125,-36.1328125,-39.55078125,-40.52734375
8,1746312971964.75,-61.03515625,-34.1796875,-38.57421875,-52.24609375
9,1746312971968.6562,-42.48046875,-35.15625,-39.0625,-44.921875
10,1746312971972.5625,-26.85546875,-31.73828125,-35.64453125,-31.25
11,1746312971976.4688,-32.71484375,-31.25,-30.2734375,-42.48046875
0,1746312971980.375,-48.33984375,-34.1796875,-38.0859375,-61.03515625
1,1746312971984.2812,-36.62109375,-31.25,-44.921875,-43.9453125
2,1746312971988.1875,-27.34375,-27.34375,-33.69140625,-24.90234375
3,1746312971992.0938,-53.7109375,-32.71484375,-21.484375,-39.0625
4,1746312971996,-52.24609375,-34.66796875,-26.3671875,-57.6171875
5,1746312971999.9062,-30.76171875,-28.80859375,-31.73828125,-46.38671875
6,1746312972003.8125,-37.59765625,-33.69140625,-31.73828125,-31.25
7,1746312972007.7188,-32.2265625,-36.1328125,-33.203125,-40.0390625
8,1746312972011.625,-36.62109375,-34.66796875,-29.78515625,-44.43359375
9,1746312972015.5312,-48.828125,-36.62109375,-31.25,-57.12890625
10,1746312972019.4375,-45.41015625,-34.66796875,-33.203125,-52.24609375
11,1746312972023.3438,-30.2734375,-31.25,-30.76171875,-37.109375
0,1746312972027.25,-41.9921875,-28.80859375,-33.203125,-52.734375
1,1746312972031.1562,-39.55078125,-30.76171875,-26.3671875,-50.78125
2,1746312972035.0625,-22.94921875,-31.25,-25.390625,-40.0390625
3,1746312972038.9688,-26.3671875,-30.76171875,-34.66796875,-37.109375
4,1746312972042.875,-31.25,-34.66796875,-31.25,-43.9453125
5,1746312972046.7812,-36.62109375,-37.109375,-26.3671875,-45.8984375
6,1746312972050.6875,-26.3671875,-31.25,-31.25,-44.921875
7,1746312972054.5938,-38.57421875,-30.76171875,-33.203125,-35.15625
8,1746312972058.5,-52.24609375,-32.71484375,-29.78515625,-10.25390625
9,1746312972062.4062,-37.109375,-31.73828125,-32.71484375,-26.85546875
10,1746312972066.3125,-36.62109375,-37.59765625,-39.0625,-48.828125
11,1746312972070.2188,-40.0390625,-37.109375,-39.55078125,-39.55078125
0,1746312972074.125,-31.73828125,-28.80859375,-33.203125,-22.4609375
1,1746312972078.0312,-35.64453125,-33.203125,-36.1328125,-33.69140625
2,1746312972081.9375,-36.1328125,-40.52734375,-42.48046875,-60.546875
3,1746312972085.8438,-32.2265625,-37.59765625,-35.64453125,-53.22265625
4,1746312972089.75,-30.76171875,-34.66796875,-31.25,-47.36328125
5,1746312972093.6562,-31.25,-33.203125,-27.34375,-32.2265625
6,1746312972097.5625,-42.96875,-32.71484375,-27.34375,-32.71484375
7,1746312972101.4688,-32.71484375,-37.109375,-30.76171875,-51.7578125
8,1746312972105.375,-31.25,-37.59765625,-28.80859375,-42.48046875
9,1746312972109.2812,-47.8515625,-36.62109375,-26.85546875,-42.96875
10,1746312972113.1875,-35.15625,-37.109375,-29.296875,-67.87109375
11,1746312972117.0938,-35.64453125,-38.57421875,-29.296875,-49.31640625
0,1746312972121,-30.2734375,-33.69140625,-24.90234375,-24.90234375
1,1746312972124.9062,-20.5078125,-26.85546875,-26.85546875,-30.76171875
2,1746312972128.8125,-33.69140625,-25.87890625,-29.296875,-35.64453125
